%OpenBCI Raw EEG Data
%
%Sample Rate = 250.0 Hz
%First Column = SampleIndex
%Other Columns = EEG data in microvolts
1, 75143.90, 8743.89, 187500.00, -166994.17, -158613.50, -174641.97, -174635.97, 187500.00
2, 74533.37, 7991.44, 187500.00, -167932.58, -159394.11, -174702.28, -174696.25, 187500.00
3, 76288.05, 9538.81, 187500.00, -166196.19, -157866.14, -174580.28, -174574.53, 187500.00
4, 78155.42, 11081.03, 187500.00, -164549.89, -156343.94, -174458.88, -174453.39, 187500.00
5, 76467.59, 9249.58, 187500.00, -166486.16, -158207.78, -174605.92, -174600.16, 187500.00
6, 75098.38, 7970.14, 187500.00, -167993.14, -159517.91, -174706.48, -174700.63, 187500.00
7, 76145.53, 9062.36, 187500.00, -166772.84, -158447.27, -174618.50, -174612.77, 187500.00
8, 78271.65, 11039.59, 187500.00, -164631.14, -156489.08, -174461.64, -174456.23, 187500.00
9, 76950.37, 9632.51, 187500.00, -166118.42, -157927.61, -174573.31, -174567.59, 187500.00
10, 75258.09, 8026.56, 187500.00, -167959.47, -159565.00, -174698.13, -174692.20, 187500.00
11, 75870.02, 8708.24, 187500.00, -167207.30, -158906.38, -174645.14, -174639.38, 187500.00
12, 78106.70, 10907.34, 187500.00, -164801.50, -156725.33, -174473.48, -174468.02, 187500.00
13, 77400.24, 10011.12, 187500.00, -165752.42, -157650.56, -174543.81, -174538.16, 187500.00
14, 75548.71, 8091.35, 187500.00, -167908.95, -159602.56, -174694.36, -174688.41, 187500.00
15, 75565.37, 8275.67, 187500.00, -167710.39, -159443.50, -174680.47, -174674.66, 187500.00
16, 77321.25, 10341.10, 187500.00, -165408.42, -157396.33, -174514.59, -174509.08, 187500.00
17, 77136.49, 10039.75, 187500.00, -165728.50, -157724.50, -174536.50, -174530.78, 187500.00
18, 75284.92, 7968.31, 187500.00, -168035.77, -159828.25, -174697.58, -174691.75, 187500.00
19, 74837.46, 7726.98, 187500.00, -168307.89, -160095.22, -174717.19, -174711.33, 187500.00
20, 76076.69, 9508.16, 187500.00, -166297.33, -158332.98, -174573.08, -174567.39, 187500.00
21, 76299.78, 9827.50, 187500.00, -165913.47, -158038.47, -174549.22, -174543.45, 187500.00
22, 74649.84, 7862.47, 187500.00, -168107.48, -160036.39, -174706.41, -174700.42, 187500.00
23, 73934.16, 7281.77, 187500.00, -168759.83, -160644.98, -174755.92, -174749.86, 187500.00
24, 74730.93, 8671.87, 187500.00, -167184.30, -159275.16, -174644.13, -174638.28, 187500.00
25, 75290.84, 9513.86, 187500.00, -166197.33, -158455.20, -174575.81, -174570.03, 187500.00
26, 74042.45, 7884.20, 187500.00, -168038.95, -160117.23, -174706.50, -174700.58, 187500.00
27, 73347.78, 7116.93, 187500.00, -168899.19, -160914.20, -174767.20, -174761.13, 187500.00
28, 73909.02, 8203.67, 187500.00, -167666.28, -159849.70, -174677.67, -174671.75, 187500.00
29, 74691.80, 9438.67, 187500.00, -166235.53, -158636.25, -174578.92, -174573.16, 187500.00
30, 73623.34, 8045.15, 187500.00, -167808.38, -160063.61, -174694.50, -174688.63, 187500.00
31, 72728.44, 7006.58, 187500.00, -168974.94, -161133.77, -174774.92, -174768.97, 187500.00
32, 73159.29, 7794.57, 187500.00, -168080.70, -160369.00, -174711.16, -174705.25, 187500.00
33, 74295.79, 9349.13, 187500.00, -166295.47, -158833.88, -174589.63, -174583.84, 187500.00
34, 73635.88, 8337.00, 187500.00, -167426.00, -159877.13, -174672.64, -174666.72, 187500.00
35, 72648.71, 7051.19, 187500.00, -168887.70, -161194.88, -174776.75, -174770.67, 187500.00
36, 72886.94, 7508.13, 187500.00, -168359.02, -160761.58, -174741.58, -174735.56, 187500.00
37, 74143.77, 9218.62, 187500.00, -166407.64, -159068.95, -174598.25, -174592.64, 187500.00
38, 73835.23, 8650.21, 187500.00, -167018.31, -159665.19, -174639.52, -174633.84, 187500.00
39, 72726.23, 7143.08, 187500.00, -168744.09, -161203.92, -174764.13, -174758.19, 187500.00
40, 72734.09, 7275.40, 187500.00, -168580.00, -161096.27, -174752.89, -174747.09, 187500.00
41, 73990.22, 8998.23, 187500.00, -166624.47, -159391.69, -174613.03, -174607.48, 187500.00
42, 74024.91, 8950.33, 187500.00, -166644.23, -159465.97, -174614.50, -174608.84, 187500.00
43, 72781.26, 7293.44, 187500.00, -168538.50, -161156.97, -174748.45, -174742.52, 187500.00
44, 72546.18, 7095.11, 187500.00, -168749.55, -161382.14, -174763.50, -174757.58, 187500.00
45, 73778.37, 8728.71, 187500.00, -166901.94, -159767.17, -174631.98, -174626.27, 187500.00
46, 74274.76, 9247.14, 187500.00, -166288.14, -159272.09, -174592.05, -174586.41, 187500.00
47, 72919.30, 7508.49, 187500.00, -168254.73, -161043.73, -174730.31, -174724.39, 187500.00
48, 72384.47, 6958.81, 187500.00, -168868.09, -161621.77, -174772.94, -174766.88, 187500.00
49, 73578.72, 8449.88, 187500.00, -167192.19, -160151.16, -174654.33, -174648.61, 187500.00
50, 74580.52, 9535.46, 187500.00, -165956.09, -159088.20, -174567.72, -174562.14, 187500.00
51, 73192.13, 7811.67, 187500.00, -167879.39, -160844.64, -174708.27, -174702.41, 187500.00
52, 72297.74, 6888.23, 187500.00, -168920.83, -161797.56, -174780.53, -174774.55, 187500.00
53, 73194.52, 8051.81, 187500.00, -167613.09, -160655.19, -174685.73, -174680.11, 187500.00
54, 74555.41, 9585.23, 187500.00, -165878.48, -159141.27, -174566.45, -174560.92, 187500.00
55, 73375.88, 8124.93, 187500.00, -167494.98, -160633.28, -174685.69, -174679.86, 187500.00
56, 72228.63, 6883.40, 187500.00, -168896.50, -161905.09, -174781.67, -174775.70, 187500.00
57, 72828.26, 7684.75, 187500.00, -167989.42, -161126.03, -174716.47, -174710.64, 187500.00
58, 74433.84, 9505.57, 187500.00, -165938.78, -159323.81, -174572.53, -174566.98, 187500.00
59, 73624.61, 8472.12, 187500.00, -167069.25, -160387.16, -174653.89, -174648.17, 187500.00
60, 72249.06, 6946.27, 187500.00, -168796.39, -161944.19, -174778.31, -174772.44, 187500.00
61, 72495.82, 7356.92, 187500.00, -168325.61, -161558.09, -174750.45, -174744.64, 187500.00
62, 74166.69, 9277.29, 187500.00, -166164.56, -159656.00, -174596.53, -174590.98, 187500.00
63, 73821.98, 8778.71, 187500.00, -166688.59, -160182.75, -174630.75, -174625.13, 187500.00
64, 72281.00, 7050.16, 187500.00, -168648.36, -161943.86, -174765.25, -174759.28, 187500.00
65, 72229.62, 7097.86, 187500.00, -168583.67, -161921.44, -174761.75, -174755.91, 187500.00
66, 73832.41, 8957.06, 187500.00, -166491.50, -160080.69, -174616.27, -174610.72, 187500.00
67, 73964.89, 9051.34, 187500.00, -166359.14, -160011.64, -174606.09, -174600.56, 187500.00
68, 72337.35, 7221.18, 187500.00, -168425.78, -161875.06, -174753.70, -174747.88, 187500.00
69, 71953.19, 6904.50, 187500.00, -168770.44, -162218.73, -174783.06, -174777.20, 187500.00
70, 73386.02, 8582.31, 187500.00, -166884.28, -160560.36, -174647.88, -174642.16, 187500.00
71, 74063.64, 9270.34, 187500.00, -166087.63, -159895.61, -174591.02, -174585.41, 187500.00
72, 72461.18, 7460.54, 187500.00, -168118.64, -161737.75, -174738.80, -174732.91, 187500.00
73, 71777.84, 6805.50, 187500.00, -168854.58, -162421.05, -174791.78, -174785.73, 187500.00
74, 72954.91, 8210.09, 187500.00, -167272.17, -161036.53, -174680.23, -174674.45, 187500.00
75, 74088.54, 9415.43, 187500.00, -165905.64, -159852.23, -174584.34, -174578.88, 187500.00
76, 72640.93, 7762.27, 187500.00, -167746.50, -161538.38, -174713.75, -174708.06, 187500.00
77, 71646.15, 6768.80, 187500.00, -168875.14, -162562.02, -174795.52, -174789.73, 187500.00
78, 72513.66, 7825.84, 187500.00, -167682.38, -161526.11, -174713.45, -174707.83, 187500.00
79, 74005.70, 9419.87, 187500.00, -165878.97, -159950.78, -174584.63, -174579.23, 187500.00
80, 72870.23, 8083.35, 187500.00, -167350.19, -161317.78, -174689.42, -174683.77, 187500.00
81, 71622.88, 6794.57, 187500.00, -168820.95, -162636.67, -174786.59, -174780.78, 187500.00
82, 72144.34, 7481.13, 187500.00, -168041.64, -161973.83, -174728.03, -174722.38, 187500.00
83, 73789.23, 9286.99, 187500.00, -166002.75, -160186.92, -174582.03, -174576.59, 187500.00
84, 73069.33, 8403.23, 187500.00, -166967.39, -161099.59, -174655.31, -174649.78, 187500.00
85, 71634.39, 6869.14, 187500.00, -168715.52, -162665.19, -174779.06, -174773.30, 187500.00
86, 71810.72, 7180.25, 187500.00, -168355.69, -162379.30, -174755.36, -174749.58, 187500.00
87, 73456.16, 9028.25, 187500.00, -166268.05, -160549.80, -174604.38, -174598.88, 187500.00
88, 73252.72, 8698.38, 187500.00, -166605.20, -160906.94, -174628.50, -174623.02, 187500.00
89, 71727.33, 7009.04, 187500.00, -168528.53, -162627.91, -174761.78, -174755.98, 187500.00
90, 71600.44, 6974.17, 187500.00, -168560.73, -162687.81, -174763.67, -174757.94, 187500.00
91, 73196.77, 8780.79, 187500.00, -166524.92, -160899.86, -174622.23, -174616.84, 187500.00
92, 73549.71, 9049.06, 187500.00, -166199.94, -160656.94, -174602.91, -174597.42, 187500.00
93, 71914.37, 7214.70, 187500.00, -168268.78, -162524.83, -174748.08, -174742.38, 187500.00
94, 71452.65, 6799.80, 187500.00, -168735.75, -162967.08, -174778.67, -174772.91, 187500.00
95, 72785.13, 8404.84, 187500.00, -166927.27, -161381.28, -174657.22, -174651.70, 187500.00
96, 73548.57, 9210.95, 187500.00, -166000.95, -160597.86, -174595.81, -174590.39, 187500.00
97, 72005.38, 7387.94, 187500.00, -168040.98, -162453.50, -174736.61, -174730.83, 187500.00
98, 71221.33, 6608.58, 187500.00, -168911.55, -163261.97, -174799.70, -174793.91, 187500.00
99, 72274.14, 7956.06, 187500.00, -167399.39, -161934.58, -174689.98, -174684.47, 187500.00
100, 73449.35, 9318.35, 187500.00, -165858.41, -160591.59, -174579.56, -174574.20, 187500.00
101, 72147.02, 7666.51, 187500.00, -167687.25, -162274.27, -174713.13, -174707.39, 187500.00
102, 71143.43, 6540.63, 187500.00, -168956.61, -163429.52, -174805.88, -174800.06, 187500.00
103, 71803.44, 7528.98, 187500.00, -167841.36, -162463.05, -174724.19, -174718.53, 187500.00
104, 73091.95, 9224.50, 187500.00, -165930.83, -160786.67, -174587.55, -174582.14, 187500.00
105, 72197.98, 7929.17, 187500.00, -167357.50, -162112.56, -174688.67, -174682.98, 187500.00
106, 71134.94, 6536.01, 187500.00, -168934.02, -163536.91, -174798.17, -174792.31, 187500.00
107, 71271.80, 7038.97, 187500.00, -168357.22, -163057.33, -174758.45, -174752.69, 187500.00
108, 72058.96, 8643.17, 187500.00, -166512.94, -161471.36, -174635.94, -174630.42, 187500.00
109, 71811.21, 7964.08, 187500.00, -167266.84, -162179.89, -174690.52, -174684.98, 187500.00
110, 71198.77, 6610.77, 187500.00, -168817.69, -163565.80, -174796.31, -174790.59, 187500.00
111, 71090.46, 6767.12, 187500.00, -168620.13, -163434.47, -174784.09, -174778.39, 187500.00
112, 71248.33, 8157.27, 187500.00, -167002.64, -162061.94, -174672.86, -174667.41, 187500.00
113, 71308.08, 8009.08, 187500.00, -167132.02, -162235.81, -174682.70, -174677.16, 187500.00
114, 71268.73, 6747.70, 187500.00, -168615.72, -163530.08, -174783.48, -174777.81, 187500.00
115, 71091.06, 6641.53, 187500.00, -168714.16, -163662.47, -174793.23, -174787.48, 187500.00
116, 70406.14, 7740.63, 187500.00, -167428.06, -162582.05, -174703.48, -174697.89, 187500.00
117, 70436.18, 7994.53, 187500.00, -167057.92, -162352.19, -174680.64, -174675.17, 187500.00
118, 71366.05, 6932.84, 187500.00, -168346.47, -163447.03, -174768.00, -174762.34, 187500.00
119, 71565.01, 6669.11, 187500.00, -168639.39, -163737.97, -174786.48, -174780.72, 187500.00
120, 71256.89, 7599.95, 187500.00, -167545.78, -162826.06, -174708.53, -174702.92, 187500.00
121, 71309.46, 8203.27, 187500.00, -166766.47, -162244.89, -174659.03, -174653.63, 187500.00
122, 71789.46, 7190.58, 187500.00, -167977.95, -163290.47, -174740.91, -174735.36, 187500.00
123, 71739.58, 6664.28, 187500.00, -168605.58, -163845.86, -174787.70, -174782.00, 187500.00
124, 71406.13, 7363.98, 187500.00, -167778.41, -163167.06, -174732.95, -174727.31, 187500.00
125, 71303.18, 8205.88, 187500.00, -166724.67, -162345.97, -174665.27, -174659.92, 187500.00
126, 71479.45, 7292.57, 187500.00, -167800.33, -163290.94, -174735.58, -174730.05, 187500.00
127, 71428.69, 6578.92, 187500.00, -168648.83, -164035.17, -174794.69, -174789.05, 187500.00
128, 71380.31, 7116.10, 187500.00, -168016.25, -163520.11, -174752.69, -174747.19, 187500.00
129, 71526.97, 8211.14, 187500.00, -166684.19, -162442.92, -174667.17, -174661.69, 187500.00
130, 71578.87, 7522.84, 187500.00, -167467.33, -163161.27, -174724.92, -174719.36, 187500.00
131, 71395.67, 6611.40, 187500.00, -168568.58, -164103.73, -174799.78, -174794.13, 187500.00
132, 71356.40, 6924.53, 187500.00, -168195.98, -163814.56, -174767.86, -174762.22, 187500.00
133, 71655.98, 8136.59, 187500.00, -166744.70, -162619.95, -174671.08, -174665.63, 187500.00
134, 71699.09, 7759.92, 187500.00, -167143.97, -163023.98, -174700.47, -174694.97, 187500.00
135, 71366.16, 6685.09, 187500.00, -168441.88, -164129.95, -174785.47, -174779.89, 187500.00
136, 71255.33, 6761.56, 187500.00, -168341.38, -164078.20, -174780.52, -174774.91, 187500.00
137, 71638.70, 7985.23, 187500.00, -166888.56, -162872.58, -174683.64, -174678.23, 187500.00
138, 71762.27, 7975.53, 187500.00, -166852.89, -162907.64, -174684.47, -174678.92, 187500.00
139, 71305.57, 6788.81, 187500.00, -168276.52, -164127.36, -174778.36, -174772.58, 187500.00
140, 71109.88, 6623.89, 187500.00, -168470.77, -164319.20, -174790.20, -174784.53, 187500.00
141, 71537.00, 7775.21, 187500.00, -167116.81, -163187.48, -174700.52, -174695.06, 187500.00
142, 71800.39, 8160.38, 187500.00, -166617.81, -162824.81, -174670.36, -174665.00, 187500.00
143, 71242.36, 6933.04, 187500.00, -168069.25, -164084.06, -174765.64, -174760.08, 187500.00
144, 70921.50, 6533.37, 187500.00, -168542.56, -164511.52, -174799.27, -174793.67, 187500.00
145, 71385.08, 7543.47, 187500.00, -167360.33, -163520.78, -174719.22, -174713.77, 187500.00
146, 71887.45, 8306.78, 187500.00, -166428.31, -162777.80, -174657.44, -174652.17, 187500.00
147, 71284.67, 7142.41, 187500.00, -167777.33, -163973.42, -174751.83, -174746.31, 187500.00
148, 70820.43, 6501.76, 187500.00, -168551.42, -164642.36, -174802.19, -174796.53, 187500.00
149, 71227.03, 7293.89, 187500.00, -167624.33, -163871.56, -174735.67, -174730.20, 187500.00
150, 71974.16, 8368.92, 187500.00, -166341.31, -162815.91, -174650.31, -174645.02, 187500.00
151, 71416.57, 7379.38, 187500.00, -167466.11, -163836.72, -174733.38, -174727.84, 187500.00
152, 70763.48, 6506.23, 187500.00, -168521.39, -164740.98, -174799.00, -174793.30, 187500.00
153, 71041.20, 7054.21, 187500.00, -167880.45, -164216.19, -174758.00, -174752.39, 187500.00
154, 72042.33, 8348.93, 187500.00, -166352.61, -162939.98, -174652.33, -174647.16, 187500.00
155, 71686.24, 7646.40, 187500.00, -167129.52, -163671.66, -174704.56, -174699.19, 187500.00
156, 70789.78, 6555.99, 187500.00, -168437.58, -164793.13, -174792.52, -174786.88, 187500.00
157, 70842.96, 6833.29, 187500.00, -168110.64, -164539.45, -174768.11, -174762.52, 187500.00
158, 71932.94, 8215.18, 187500.00, -166489.41, -163175.48, -174659.59, -174654.38, 187500.00
159, 71850.77, 7892.04, 187500.00, -166822.73, -163524.80, -174686.67, -174681.38, 187500.00
160, 70819.53, 6645.53, 187500.00, -168305.55, -164802.47, -174786.36, -174780.80, 187500.00
161, 70666.89, 6663.21, 187500.00, -168291.06, -164809.95, -174785.77, -174780.16, 187500.00
162, 71742.62, 8011.76, 187500.00, -166714.14, -163480.19, -174678.03, -174672.73, 187500.00
163, 72007.95, 8115.87, 187500.00, -166553.89, -163401.11, -174668.69, -174663.36, 187500.00
164, 70912.34, 6791.71, 187500.00, -168111.78, -164757.88, -174778.44, -174772.78, 187500.00
165, 70535.30, 6546.36, 187500.00, -168407.64, -165030.81, -174799.89, -174794.30, 187500.00
166, 71487.05, 7757.13, 187500.00, -166990.80, -163839.31, -174699.89, -174694.55, 187500.00
167, 72103.69, 8281.61, 187500.00, -166352.16, -163336.28, -174656.03, -174650.80, 187500.00
168, 71033.38, 6973.61, 187500.00, -167869.95, -164675.67, -174755.00, -174749.53, 187500.00
169, 70443.63, 6478.59, 187500.00, -168471.63, -165198.34, -174795.53, -174789.86, 187500.00
170, 71206.46, 7479.32, 187500.00, -167301.38, -164218.16, -174716.27, -174710.77, 187500.00
171, 72120.34, 8369.97, 187500.00, -166238.92, -163348.55, -174648.23, -174642.95, 187500.00
172, 71192.52, 7188.54, 187500.00, -167588.88, -164561.14, -174744.44, -174738.88, 187500.00
173, 70406.23, 6452.12, 187500.00, -168483.67, -165327.08, -174802.92, -174797.16, 187500.00
174, 70926.40, 7197.55, 187500.00, -167608.06, -164603.03, -174749.23, -174743.66, 187500.00
175, 72052.81, 8366.91, 187500.00, -166229.77, -163452.67, -174654.80, -174649.53, 187500.00
176, 71361.09, 7423.22, 187500.00, -167290.22, -164425.84, -174728.83, -174723.33, 187500.00
177, 70414.56, 6474.58, 187500.00, -168440.70, -165404.13, -174802.45, -174796.77, 187500.00
178, 70668.91, 6951.41, 187500.00, -167884.64, -164949.88, -174763.05, -174757.48, 187500.00
179, 71894.00, 8281.01, 187500.00, -166320.13, -163638.64, -174656.72, -174651.50, 187500.00
180, 71517.60, 7670.67, 187500.00, -166989.03, -164277.14, -174704.16, -174698.72, 187500.00
181, 70437.52, 6536.86, 187500.00, -168350.25, -165442.28, -174794.69, -174788.95, 187500.00
182, 70456.45, 6745.26, 187500.00, -168105.47, -165257.33, -174778.20, -174772.52, 187500.00
183, 71670.51, 8113.57, 187500.00, -166498.45, -163907.14, -174670.36, -174665.05, 187500.00
184, 71661.66, 7902.86, 187500.00, -166704.27, -164143.88, -174684.73, -174679.39, 187500.00
185, 70527.53, 6646.69, 187500.00, -168197.16, -165430.70, -174786.48, -174780.89, 187500.00
186, 70322.97, 6594.86, 187500.00, -168268.38, -165507.83, -174792.67, -174787.17, 187500.00
187, 71426.54, 7891.15, 187500.00, -166746.75, -164229.75, -174688.27, -174682.97, 187500.00
188, 71773.64, 8100.21, 187500.00, -166463.73, -164043.53, -174673.64, -174668.23, 187500.00
189, 70655.43, 6795.35, 187500.00, -167992.73, -165379.80, -174777.69, -174772.13, 187500.00
190, 70230.01, 6490.43, 187500.00, -168371.44, -165711.05, -174796.48, -174790.84, 187500.00
191, 71132.73, 7626.68, 187500.00, -167034.52, -164594.42, -174704.63, -174699.31, 187500.00
192, 71808.76, 8240.01, 187500.00, -166294.83, -164003.02, -174656.23, -174651.09, 187500.00
193, 70797.49, 6988.23, 187500.00, -167745.14, -165286.09, -174757.75, -174752.23, 187500.00
194, 70183.29, 6442.89, 187500.00, -168413.61, -165858.95, -174802.08, -174796.41, 187500.00
195, 70850.65, 7359.16, 187500.00, -167336.39, -164963.00, -174726.47, -174721.03, 187500.00
196, 71773.28, 8308.75, 187500.00, -166206.53, -164033.84, -174650.28, -174645.17, 187500.00
197, 70947.56, 7205.29, 187500.00, -167464.56, -165168.97, -174741.08, -174735.58, 187500.00
198, 70180.92, 6433.64, 187500.00, -168410.27, -165969.61, -174803.75, -174797.98, 187500.00
199, 70599.48, 7095.07, 187500.00, -167629.20, -165330.28, -174751.41, -174745.91, 187500.00
200, 71642.79, 8285.14, 187500.00, -166224.03, -164158.81, -174656.70, -174651.47, 187500.00
201, 71085.79, 7444.81, 187500.00, -167164.02, -165028.44, -174722.48, -174716.97, 187500.00
202, 70259.98, 6479.08, 187500.00, -168342.31, -166024.73, -174794.75, -174789.00, 187500.00
203, 70483.41, 6878.37, 187500.00, -167870.52, -165648.70, -174764.34, -174758.89, 187500.00
204, 71505.89, 8185.39, 187500.00, -166328.53, -164359.69, -174666.61, -174661.38, 187500.00
205, 71210.13, 7686.50, 187500.00, -166869.64, -164886.16, -174707.05, -174701.66, 187500.00
206, 70334.63, 6559.63, 187500.00, -168231.78, -166044.83, -174795.31, -174789.70, 187500.00
207, 70359.34, 6702.89, 187500.00, -168073.48, -165926.42, -174779.55, -174774.09, 187500.00
208, 71327.77, 8016.99, 187500.00, -166521.89, -164630.52, -174674.83, -174669.73, 187500.00
209, 71345.00, 7917.79, 187500.00, -166600.53, -164754.70, -174687.38, -174682.23, 187500.00
210, 70428.11, 6688.58, 187500.00, -168065.48, -166015.63, -174784.89, -174779.38, 187500.00
211, 70250.10, 6577.09, 187500.00, -168213.59, -166153.23, -174791.59, -174786.02, 187500.00
212, 71081.59, 7789.56, 187500.00, -166780.64, -164959.47, -174693.63, -174688.36, 187500.00
213, 71362.55, 8089.36, 187500.00, -166393.48, -164682.42, -174670.61, -174665.47, 187500.00
214, 70491.32, 6841.27, 187500.00, -167858.00, -165962.53, -174770.05, -174764.59, 187500.00
215, 70156.85, 6491.80, 187500.00, -168300.69, -166338.84, -174800.11, -174794.59, 187500.00
216, 70821.19, 7530.77, 187500.00, -167068.13, -165319.44, -174719.78, -174714.59, 187500.00
217, 71361.95, 8207.81, 187500.00, -166253.20, -164662.22, -174664.53, -174659.47, 187500.00
218, 70614.16, 7037.78, 187500.00, -167610.56, -165862.75, -174757.83, -174752.39, 187500.00
219, 70141.13, 6460.06, 187500.00, -168329.44, -166469.28, -174801.78, -174796.22, 187500.00
220, 70608.69, 7271.09, 187500.00, -167366.23, -165679.06, -174738.83, -174733.55, 187500.00
221, 71313.77, 8241.94, 187500.00, -166205.58, -164727.13, -174663.77, -174658.73, 187500.00
222, 70723.80, 7248.54, 187500.00, -167338.23, -165751.84, -174746.20, -174740.86, 187500.00
223, 70115.88, 6462.72, 187500.00, -168311.80, -166567.58, -174803.58, -174798.02, 187500.00
224, 70384.50, 7027.34, 187500.00, -167639.17, -166025.44, -174755.61, -174750.22, 187500.00
225, 71168.27, 8206.93, 187500.00, -166239.94, -164864.70, -174661.08, -174655.94, 187500.00
226, 70774.65, 7483.50, 187500.00, -167046.78, -165616.66, -174718.47, -174713.09, 187500.00
227, 70079.29, 6511.26, 187500.00, -168241.59, -166619.42, -174790.88, -174785.31, 187500.00
228, 70171.96, 6825.42, 187500.00, -167869.50, -166328.95, -174766.77, -174761.44, 187500.00
229, 70979.62, 8088.47, 187500.00, -166369.27, -165082.36, -174665.52, -174660.58, 187500.00
230, 70831.24, 7710.57, 187500.00, -166774.23, -165486.70, -174695.58, -174690.41, 187500.00
231, 70076.90, 6592.94, 187500.00, -168130.02, -166636.41, -174784.53, -174779.03, 187500.00
232, 70004.32, 6662.14, 187500.00, -168062.22, -166592.27, -174782.75, -174777.27, 187500.00
233, 70781.00, 7913.63, 187500.00, -166573.78, -165357.03, -174684.83, -174679.77, 187500.00
234, 70881.85, 7923.78, 187500.00, -166528.36, -165370.06, -174680.20, -174675.08, 187500.00
235, 70107.72, 6722.69, 187500.00, -167961.70, -166603.23, -174775.23, -174769.77, 187500.00
236, 69892.90, 6551.99, 187500.00, -168186.45, -166800.47, -174785.83, -174780.31, 187500.00
237, 70567.74, 7687.73, 187500.00, -166834.69, -165683.11, -174694.13, -174688.88, 187500.00
238, 70907.64, 8083.46, 187500.00, -166340.09, -165309.39, -174665.17, -174660.02, 187500.00
239, 70168.96, 6881.32, 187500.00, -167749.33, -166543.41, -174760.38, -174754.83, 187500.00
240, 69816.52, 6481.29, 187500.00, -168261.22, -166970.75, -174796.05, -174790.55, 187500.00
241, 70344.83, 7440.85, 187500.00, -167115.61, -166030.30, -174717.28, -174712.05, 187500.00
242, 70887.20, 8187.85, 187500.00, -166218.73, -165302.70, -174653.38, -174648.28, 187500.00
243, 70240.65, 7082.95, 187500.00, -167491.77, -166439.11, -174742.05, -174736.64, 187500.00
244, 69756.35, 6463.16, 187500.00, -168276.33, -167087.53, -174789.97, -174784.28, 187500.00
245, 70131.41, 7195.45, 187500.00, -167404.03, -166375.81, -174730.55, -174725.28, 187500.00
246, 70824.90, 8215.50, 187500.00, -166187.27, -165374.00, -174648.05, -174642.94, 187500.00
247, 70318.45, 7303.50, 187500.00, -167222.98, -166315.72, -174725.44, -174720.09, 187500.00
248, 69712.88, 6481.09, 187500.00, -168247.56, -167168.94, -174789.61, -174784.09, 187500.00
249, 69918.96, 6972.25, 187500.00, -167660.63, -166700.78, -174749.08, -174743.73, 187500.00
250, 70663.72, 8161.96, 187500.00, -166246.13, -165528.55, -174656.45, -174651.41, 187500.00
251, 70337.98, 7534.37, 187500.00, -166941.91, -166183.88, -174707.47, -174702.17, 187500.00
252, 69641.55, 6537.33, 187500.00, -168168.95, -167212.98, -174788.77, -174783.19, 187500.00
253, 69685.31, 6778.12, 187500.00, -167889.56, -166996.53, -174767.64, -174762.14, 187500.00
254, 70487.97, 8027.20, 187500.00, -166401.73, -165764.31, -174664.34, -174659.28, 187500.00
255, 70423.10, 7754.74, 187500.00, -166679.83, -166062.39, -174684.73, -174679.61, 187500.00
256, 69683.93, 6630.60, 187500.00, -168040.13, -167217.86, -174774.94, -174769.42, 187500.00
257, 69600.52, 6640.55, 187500.00, -168048.64, -167232.66, -174773.47, -174768.00, 187500.00
258, 70389.64, 7846.85, 187500.00, -166608.64, -166044.52, -174676.17, -174671.08, 187500.00
259, 70573.51, 7959.93, 187500.00, -166446.50, -165954.48, -174670.31, -174665.27, 187500.00
260, 69799.49, 6777.34, 187500.00, -167855.16, -167168.67, -174766.89, -174761.41, 187500.00
261, 69541.21, 6548.68, 187500.00, -168155.31, -167424.16, -174785.20, -174779.66, 187500.00
262, 70209.42, 7621.01, 187500.00, -166872.55, -166370.05, -174698.25, -174693.05, 187500.00
263, 70625.59, 8108.68, 187500.00, -166274.31, -165902.73, -174659.30, -174654.27, 187500.00
264, 69870.57, 6952.20, 187500.00, -167627.77, -167091.28, -174751.67, -174746.27, 187500.00
265, 69464.95, 6507.02, 187500.00, -168202.50, -167565.17, -174787.42, -174781.77, 187500.00
266, 70000.38, 7388.01, 187500.00, -167143.52, -166703.58, -174714.61, -174709.31, 187500.00
267, 70643.89, 8198.28, 187500.00, -166175.02, -165912.72, -174646.36, -174641.34, 187500.00
268, 69986.20, 7161.99, 187500.00, -167366.09, -166980.09, -174729.02, -174723.61, 187500.00
269, 69437.37, 6502.55, 187500.00, -168206.13, -167668.86, -174782.67, -174777.11, 187500.00
270, 69810.22, 7156.56, 187500.00, -167422.98, -167035.86, -174731.41, -174726.08, 187500.00
271, 70600.11, 8204.25, 187500.00, -166171.64, -166006.00, -174647.63, -174642.69, 187500.00
272, 70109.09, 7382.42, 187500.00, -167095.42, -166857.23, -174710.22, -174705.00, 187500.00
273, 69436.63, 6540.86, 187500.00, -168154.69, -167729.50, -174777.63, -174772.48, 187500.00
274, 69628.07, 6956.15, 187500.00, -167661.08, -167337.06, -174745.53, -174740.39, 187500.00
275, 70491.70, 8139.63, 187500.00, -166248.78, -166170.38, -174646.88, -174641.86, 187500.00
276, 70232.62, 7614.95, 187500.00, -166826.33, -166722.38, -174686.63, -174681.53, 187500.00
277, 69466.96, 6605.79, 187500.00, -168071.64, -167763.72, -174767.66, -174763.67, 187500.00
278, 69483.48, 6783.89, 187500.00, -167870.05, -167609.83, -174756.19, -174752.13, 187500.00
279, 70645.99, 9097.18, 187500.00, -165623.72, -166144.95, -174123.50, -174040.64, 187500.00
280, 82151.06, 53836.72, 187500.00, -129696.87, -154589.84, -150661.91, -145683.13, 187500.00
281, 96245.06, 112468.19, 187500.00, -80929.54, -139431.23, -118283.44, -104700.06, 187500.00
282, 96778.27, 118017.05, 187500.00, -79332.46, -138434.11, -116779.30, -102081.58, 187500.00
283, 96676.74, 118432.01, 187500.00, -76150.02, -136962.08, -116904.96, -101848.76, 187500.00
284, 97476.40, 119443.90, 187500.00, -77339.40, -136930.58, -117168.20, -102841.16, 187392.19
285, 97184.45, 118182.16, 187500.00, -79123.97, -137845.59, -116470.66, -101713.02, 187500.00
286, 96730.97, 119024.45, 187500.00, -82670.45, -138738.14, -116680.48, -102482.56, 187500.00
287, 96180.38, 117147.59, 187500.00, -76990.27, -136480.00, -115462.40, -99632.74, 187500.00
288, 97207.48, 117508.19, 187500.00, -73762.14, -135628.19, -115385.78, -99155.11, 187500.00
289, 97384.22, 117431.95, 187500.00, -78770.72, -138063.50, -116961.58, -102191.93, 187500.00
290, 97082.07, 117275.82, 187500.00, -80938.03, -138755.78, -117369.38, -103148.98, 187500.00
291, 95686.16, 116769.06, 187500.00, -76147.27, -136828.81, -115838.23, -100539.51, 187500.00
292, 95580.21, 118638.88, 187500.00, -74949.40, -136305.22, -116888.11, -102143.31, 187500.00
293, 96249.05, 118299.46, 187500.00, -79930.87, -138404.81, -117835.98, -104288.63, 187500.00
294, 97112.54, 119087.90, 187500.00, -83945.41, -139593.69, -118054.02, -105348.38, 187500.00
295, 96961.17, 119138.55, 187500.00, -80732.45, -138487.98, -117068.77, -103340.65, 187500.00
296, 97196.42, 119101.11, 187500.00, -74957.49, -136200.63, -115988.92, -100352.49, 187500.00
297, 97102.01, 118163.32, 187500.00, -77766.21, -137737.05, -116568.19, -102732.88, 187500.00
298, 96453.54, 118562.05, 187500.00, -79771.79, -138904.98, -117149.71, -102811.29, 187500.00
299, 96769.82, 119956.84, 187500.00, -79739.51, -138374.89, -117016.43, -102400.52, 187500.00
300, 97259.48, 119561.02, 187500.00, -75212.16, -136198.92, -116143.46, -100469.75, 187500.00
301, 96764.97, 117117.86, 187500.00, -75159.33, -136537.06, -115569.80, -100076.53, 187500.00
302, 96618.63, 117969.02, 187500.00, -80706.24, -138494.28, -116595.66, -101440.23, 187500.00
303, 96863.61, 117730.68, 187500.00, -80028.49, -138199.69, -116680.44, -101426.20, 187500.00
304, 96285.30, 119278.54, 187500.00, -75516.35, -136280.28, -116366.71, -101202.08, 187500.00
305, 96695.34, 118974.66, 187500.00, -75731.22, -136433.05, -116537.90, -100628.31, 187500.00
306, 96426.30, 116291.79, 187500.00, -79263.59, -138248.80, -116217.42, -101196.60, 187500.00
307, 96927.76, 117385.52, 187500.00, -83120.52, -139129.55, -117432.06, -103310.20, 187500.00
308, 96872.41, 118702.22, 187500.00, -77065.33, -137141.45, -116728.30, -102315.89, 187500.00
309, 96369.23, 118613.87, 187500.00, -74870.65, -136287.03, -116089.73, -100519.08, 187500.00
310, 96770.66, 118399.76, 187500.00, -79164.38, -138355.77, -116846.84, -102252.32, 187500.00
311, 97526.54, 119007.27, 187500.00, -79855.65, -139082.98, -116918.51, -102788.05, 187500.00
312, 96940.02, 117357.25, 187500.00, -76662.95, -137314.39, -116590.65, -102161.98, 187500.00
313, 97006.37, 117264.09, 187500.00, -72817.20, -135877.25, -115927.38, -100003.94, 187500.00
314, 97067.12, 117730.73, 187500.00, -77078.58, -137669.75, -116328.47, -100776.93, 187500.00
315, 96970.24, 116672.81, 187500.00, -79483.59, -138613.20, -116097.17, -100719.66, 187500.00
316, 97020.45, 116236.87, 187500.00, -78143.59, -137703.38, -116265.77, -101509.59, 187500.00
317, 96759.80, 117386.13, 187500.00, -75709.11, -136708.36, -116758.29, -102392.53, 187500.00
318, 96837.14, 116565.48, 187500.00, -75835.66, -137531.27, -116033.60, -100899.02, 187500.00
319, 97552.46, 118693.77, 187500.00, -80141.82, -139071.67, -116967.77, -102591.76, 187500.00
320, 96683.20, 117369.88, 187500.00, -77137.34, -137788.44, -116165.52, -100320.05, 187500.00
321, 96759.88, 116881.60, 187500.00, -74937.80, -136580.91, -116310.36, -100593.98, 187500.00
322, 97381.32, 117375.33, 187500.00, -78622.28, -137791.06, -117009.57, -102428.74, 187500.00
323, 97232.63, 118640.71, 187500.00, -79961.73, -138634.59, -116373.30, -100906.59, 187500.00
324, 97068.39, 117909.12, 187500.00, -78974.97, -138489.69, -116618.19, -101737.27, 187500.00
325, 96713.58, 116814.84, 187500.00, -74317.85, -136586.61, -116243.51, -101529.82, 187500.00
326, 96725.61, 117659.94, 187500.00, -78649.33, -137563.27, -116646.38, -102550.11, 187500.00
327, 97100.09, 118227.23, 187500.00, -81682.34, -139263.95, -117265.20, -103372.41, 187500.00
328, 97595.16, 118107.87, 187500.00, -80221.46, -139074.69, -117196.25, -103194.29, 187017.00
329, 96835.42, 116886.56, 187500.00, -76435.48, -137102.36, -116810.01, -101879.31, 186937.33
330, 97225.80, 117345.63, 187500.00, -76962.80, -136940.69, -116483.43, -101480.76, 187448.66
331, 97504.85, 118023.66, 187500.00, -77792.72, -137910.02, -115812.74, -99467.27, 187500.00
332, 97452.46, 118532.08, 187500.00, -79762.17, -138369.03, -116352.16, -100503.63, 187500.00
333, 97071.86, 118965.50, 187500.00, -78825.86, -137347.67, -116866.00, -102138.28, 187500.00
334, 96903.95, 118535.07, 187500.00, -76348.66, -136714.03, -116444.23, -102331.05, 186821.70
335, 97745.09, 118749.09, 187500.00, -78395.19, -138325.00, -116518.66, -102419.58, 186905.30
336, 97983.23, 118325.05, 187500.00, -78647.92, -138353.84, -116354.86, -100479.41, 187500.00
337, 97702.98, 117534.54, 187500.00, -75552.07, -136929.44, -116059.62, -99722.35, 187500.00
338, 97450.27, 116375.18, 187500.00, -71521.18, -135466.00, -115122.55, -98542.55, 187500.00
339, 97475.38, 118714.27, 187500.00, -77553.98, -137606.67, -116488.28, -100831.30, 187500.00
340, 97909.33, 118852.71, 187500.00, -79431.66, -138563.31, -116384.14, -101218.20, 187397.42
341, 97169.63, 116803.93, 187500.00, -76252.28, -137361.66, -115844.20, -100002.08, 186882.28
342, 96349.07, 117707.75, 187500.00, -74402.38, -136200.70, -116164.80, -100288.66, 187149.72
343, 97347.05, 118733.76, 187500.00, -79125.40, -138108.61, -116902.23, -102614.62, 185687.09
344, 98498.91, 120408.48, 187500.00, -79573.99, -138897.28, -116520.65, -101395.20, 187500.00
345, 98207.17, 119507.73, 187500.00, -79323.37, -138236.17, -116664.05, -101428.15, 187500.00
346, 97302.17, 118014.95, 187500.00, -74957.47, -136210.25, -116207.09, -100236.80, 187396.03
347, 97679.63, 118839.84, 187500.00, -72629.53, -136213.56, -115092.10, -98223.20, 187500.00
348, 98013.70, 119745.53, 187500.00, -79229.76, -138298.83, -116153.14, -100344.69, 186853.41
349, 97926.09, 120386.73, 187500.00, -78305.42, -137928.91, -116192.88, -99913.10, 185855.83
350, 97143.41, 117228.84, 187500.00, -75348.27, -136243.78, -116027.88, -99919.05, 186312.80
351, 97696.70, 117363.46, 187500.00, -75998.32, -136648.97, -115756.23, -100442.50, 186414.50
352, 98135.13, 119160.72, 187500.00, -77557.84, -137916.61, -115531.11, -99038.99, 187017.08
353, 98432.72, 119797.61, 187500.00, -78992.34, -138392.31, -116515.48, -101251.21, 186529.23
354, 97518.84, 118143.77, 187500.00, -74792.73, -136895.95, -116189.48, -101077.73, 185356.55
355, 97600.88, 118194.75, 187500.00, -77042.17, -137100.39, -116593.31, -101966.29, 186259.42
356, 98119.44, 119407.51, 187500.00, -80869.32, -138747.75, -117002.52, -102446.55, 185322.75
357, 98610.51, 119007.30, 187500.00, -80155.70, -138941.28, -116487.95, -102100.80, 186454.89
358, 97475.26, 117854.04, 187500.00, -77482.70, -137030.34, -115908.21, -101089.72, 186033.55
359, 96778.96, 116298.76, 187500.00, -73255.74, -135999.81, -115506.79, -99422.03, 186285.20
360, 98427.38, 120301.29, 187500.00, -80592.43, -138421.64, -116755.05, -102307.69, 187500.00
361, 98750.45, 120915.67, 187500.00, -80214.55, -138671.83, -116397.20, -100557.97, 187138.28
362, 98350.16, 118681.70, 187500.00, -76064.95, -137046.34, -115642.40, -99350.21, 185772.45
363, 97805.84, 117102.22, 187500.00, -72691.67, -136141.19, -115700.31, -100401.95, 186131.00
364, 98523.05, 118796.59, 187500.00, -76463.95, -137697.05, -116524.38, -101753.25, 185446.69
365, 98332.56, 120982.43, 187500.00, -82114.05, -139109.23, -117210.45, -102333.14, 185949.61
366, 97895.92, 119748.22, 187500.00, -80397.14, -138469.05, -117210.15, -102859.86, 186219.16
367, 97015.58, 117723.41, 187500.00, -75953.13, -136724.34, -116242.41, -101444.57, 186429.20
368, 97377.90, 117812.60, 187500.00, -78589.67, -137578.67, -116172.98, -101068.95, 186415.11
369, 98698.39, 120179.23, 187500.00, -81819.41, -139285.16, -116930.55, -102453.04, 186120.59
370, 97795.34, 119074.51, 187500.00, -80064.04, -138519.75, -117019.13, -101953.27, 187500.00
371, 96975.16, 116533.09, 187500.00, -76307.49, -136820.44, -116691.73, -101714.07, 187500.00
372, 97590.93, 117414.18, 187500.00, -79179.42, -137726.61, -117013.37, -102265.46, 186808.97
373, 98017.23, 121053.52, 187500.00, -81938.50, -139028.38, -116761.95, -101229.51, 186477.83
374, 98104.91, 120365.99, 187500.00, -82587.05, -138929.45, -117375.35, -102602.86, 187500.00
375, 97754.70, 117887.32, 187500.00, -77618.13, -136520.50, -116510.61, -101081.47, 187500.00
376, 97632.95, 117310.04, 187500.00, -78072.79, -137129.67, -116769.63, -101526.45, 187148.80
377, 98072.34, 118154.18, 187500.00, -81518.95, -139114.75, -117487.38, -102621.15, 186600.94
378, 97969.66, 119686.37, 187500.00, -79831.48, -138776.59, -116680.88, -100866.18, 185955.16
379, 97840.09, 118164.05, 187500.00, -74874.90, -136553.31, -115919.25, -99781.07, 186853.45
380, 98256.19, 120193.13, 187500.00, -77592.91, -137118.50, -117021.37, -102334.09, 187134.19
381, 98907.83, 120402.95, 187500.00, -77996.23, -138409.73, -116130.83, -101056.23, 186115.91
382, 98460.02, 120461.95, 187500.00, -80091.02, -138902.59, -116541.88, -101682.69, 187500.00
383, 98529.41, 118361.87, 187500.00, -78622.84, -137595.05, -117316.62, -103015.43, 186715.42
384, 98339.45, 116403.39, 187500.00, -75587.61, -136704.77, -116857.48, -102316.70, 186236.47
385, 98687.55, 120432.34, 187500.00, -79460.76, -138322.22, -116953.42, -101601.21, 186298.78
386, 99053.61, 120902.46, 187500.00, -80874.11, -138752.09, -116466.38, -101133.08, 187500.00
387, 98554.90, 118034.64, 187500.00, -80685.77, -137924.88, -116756.19, -101921.67, 187500.00
388, 97439.72, 118060.26, 187500.00, -75425.89, -136574.00, -116470.94, -101473.50, 187500.00
389, 97923.15, 118891.45, 187500.00, -74974.88, -137252.48, -115709.37, -99378.73, 187347.94
390, 98645.33, 119328.77, 187500.00, -77084.84, -138438.92, -115466.18, -99681.60, 185503.41
391, 98178.05, 119213.90, 187500.00, -76505.68, -137564.95, -115508.60, -99274.64, 187380.91
392, 96875.27, 116881.27, 187500.00, -74295.30, -136055.80, -115607.66, -98857.43, 187500.00
393, 98280.75, 118877.52, 187500.00, -76230.69, -137143.13, -115453.71, -99056.11, 187500.00
394, 98874.28, 119257.15, 187500.00, -79384.85, -138526.73, -115685.07, -100173.74, 187271.61
395, 98846.41, 120040.55, 187500.00, -79753.88, -138150.34, -115956.84, -100912.49, 187150.75
396, 98735.88, 117626.21, 187500.00, -77825.30, -136916.59, -116825.84, -102396.96, 187282.00
397, 98069.37, 117420.13, 187500.00, -76026.57, -136925.08, -115988.65, -100684.15, 186505.66
398, 99066.23, 119419.58, 187500.00, -79126.23, -138929.81, -116390.89, -101640.51, 187059.64
399, 98891.06, 119809.62, 187500.00, -81949.74, -139195.08, -117068.29, -102621.93, 185890.47
400, 98074.29, 119341.59, 187500.00, -77063.58, -136816.13, -116292.16, -100475.70, 186783.63
401, 98000.98, 119067.18, 187500.00, -77516.59, -136886.44, -116115.99, -99983.35, 187500.00
402, 98949.47, 119433.59, 187500.00, -79061.18, -138677.50, -116187.49, -100598.65, 187500.00
403, 99286.65, 120565.28, 187500.00, -77404.45, -138432.44, -115780.18, -99457.93, 187500.00
404, 98246.53, 119139.51, 187500.00, -76226.22, -136911.63, -115725.08, -99826.40, 186388.16
405, 98224.00, 119093.94, 187500.00, -75913.85, -136410.03, -115590.79, -99888.09, 186795.38
406, 98554.11, 120980.35, 187500.00, -79104.05, -138353.56, -116271.00, -100871.81, 187500.00
407, 98768.47, 121565.50, 187500.00, -80108.25, -138837.45, -116435.58, -100511.01, 187497.42
408, 98192.23, 120975.55, 187500.00, -79574.89, -137874.97, -116834.38, -101326.80, 186433.39
409, 97919.73, 119777.38, 187500.00, -77814.73, -136599.00, -116140.02, -100738.99, 187500.00
410, 98461.09, 120278.02, 187500.00, -80030.44, -138239.48, -116589.60, -101491.69, 187500.00
411, 98507.78, 120286.52, 187500.00, -81411.04, -139261.89, -116948.95, -102871.13, 187430.75
412, 98063.67, 120494.18, 187500.00, -77191.16, -137820.94, -116452.54, -101403.00, 186503.44
413, 98055.47, 119064.25, 187500.00, -74945.22, -136385.09, -116133.94, -100504.99, 187212.27
414, 98219.58, 120843.36, 187500.00, -79279.09, -138021.56, -116147.48, -100877.98, 187500.00
415, 98450.80, 120277.82, 187500.00, -81056.97, -139210.70, -116397.22, -101755.91, 187500.00
416, 97935.23, 119681.72, 187500.00, -81559.86, -139122.48, -117584.05, -104080.65, 186866.81
417, 98230.77, 117780.68, 187500.00, -77184.44, -136989.20, -116784.09, -102260.45, 187204.17
418, 98279.08, 120724.78, 187500.00, -80504.48, -138252.00, -117454.84, -103441.05, 187119.05
419, 98371.09, 120450.62, 187500.00, -83364.20, -139678.45, -117766.66, -103647.90, 187386.95
420, 98299.34, 119943.46, 187500.00, -80421.38, -138734.91, -116829.57, -102041.34, 187409.30
421, 98604.23, 119017.94, 187500.00, -77871.40, -137120.80, -116932.37, -102731.99, 185555.75
422, 98328.88, 120427.30, 187500.00, -77689.68, -137484.22, -116309.00, -100693.02, 187500.00
423, 98677.36, 121650.57, 187500.00, -80587.02, -138945.92, -116390.65, -100554.17, 187500.00
424, 98933.60, 120886.37, 187500.00, -80694.71, -138801.72, -116381.44, -101471.71, 187500.00
425, 98520.16, 119749.47, 187500.00, -76477.43, -136717.48, -116231.17, -101336.26, 187500.00
426, 98271.23, 118981.26, 187500.00, -79011.67, -137307.41, -116956.88, -101977.87, 187168.52
427, 97693.55, 119643.23, 187500.00, -79200.99, -138275.28, -116102.16, -100425.13, 187036.73
428, 97798.52, 119130.37, 187500.00, -79290.04, -138710.27, -116200.28, -100321.63, 186769.25
429, 98312.53, 118585.70, 187500.00, -75902.38, -136927.59, -115774.74, -99371.16, 186992.19
430, 98571.39, 119362.31, 187500.00, -76385.19, -136545.03, -115819.05, -100257.52, 187197.38
431, 97847.04, 119217.59, 187500.00, -79869.82, -138426.22, -116223.97, -100792.59, 186643.00
432, 97987.97, 118057.91, 187500.00, -81941.63, -139291.81, -117070.77, -101765.23, 185241.33
433, 98217.16, 120164.00, 187500.00, -78767.37, -138026.47, -116994.55, -101889.82, 186274.42
434, 98707.83, 119734.47, 187500.00, -78926.06, -137259.42, -117359.71, -103326.59, 185929.25
435, 98066.27, 119341.62, 187500.00, -81924.15, -138921.83, -117559.58, -103107.56, 186627.98
436, 97987.36, 119047.71, 187500.00, -84074.92, -139933.98, -117790.02, -103749.69, 186374.72
437, 98857.05, 120139.80, 187500.00, -81820.59, -139043.20, -117640.11, -103340.29, 187500.00
438, 98207.68, 119299.21, 187500.00, -77270.36, -137026.72, -116609.09, -101363.44, 187500.00
439, 97899.92, 120039.16, 187500.00, -80282.97, -138174.92, -116744.32, -101635.10, 187500.00
440, 98497.25, 119171.59, 187500.00, -82617.56, -139578.25, -117435.99, -102992.07, 187129.64
441, 99009.24, 118771.04, 187500.00, -80471.46, -138591.45, -116606.66, -101394.20, 187500.00
442, 98729.35, 119139.06, 187500.00, -79299.49, -137811.00, -117592.41, -103964.91, 186842.38
443, 98725.59, 120435.20, 187500.00, -79153.31, -138544.98, -117493.57, -103446.04, 185467.77
444, 98550.07, 119067.94, 187500.00, -80779.36, -139299.53, -116927.00, -102054.80, 187382.13
445, 98779.02, 117264.55, 187500.00, -81839.99, -139068.25, -116945.02, -102873.99, 187006.09
446, 98031.71, 118549.36, 187500.00, -82098.67, -138344.73, -118472.49, -106108.45, 185100.56
447, 97849.79, 120172.67, 187500.00, -78982.66, -137570.38, -117127.70, -102148.27, 186924.33
448, 98773.25, 120612.71, 187500.00, -82124.82, -139335.89, -117300.85, -102491.71, 187500.00
449, 98890.82, 119903.80, 187500.00, -81109.29, -139352.08, -117141.98, -102512.88, 187069.20
450, 98348.77, 120052.29, 187500.00, -79219.59, -137583.83, -116967.34, -102133.90, 187067.58
451, 98638.36, 119348.88, 187500.00, -79062.41, -137385.23, -117156.64, -102564.41, 187500.00
452, 98634.65, 118572.83, 187500.00, -79909.43, -138861.81, -116936.19, -103047.57, 186585.61
453, 98006.90, 119681.02, 187500.00, -80300.13, -139070.06, -116724.67, -102257.39, 187500.00
454, 97967.36, 118918.74, 187500.00, -77985.26, -137567.81, -116490.29, -101607.25, 187500.00
455, 98385.63, 119569.40, 187500.00, -78259.38, -137422.55, -116911.94, -102973.45, 187500.00
456, 98351.07, 119636.91, 187500.00, -80381.92, -138478.64, -116665.77, -101972.16, 186843.30
457, 98694.80, 121319.09, 187500.00, -83143.14, -139782.47, -117216.77, -102362.47, 187295.75
458, 98246.22, 119936.10, 187500.00, -81023.95, -138853.34, -117275.09, -102820.59, 187104.77
459, 98107.26, 118586.38, 187500.00, -76986.06, -137008.67, -116514.81, -101031.70, 186389.84
460, 97988.75, 118614.36, 187500.00, -82421.74, -138920.17, -117242.95, -103232.16, 186250.63
461, 97949.56, 118681.79, 187500.00, -86542.17, -140530.13, -118425.26, -106414.46, 185809.47
462, 98227.71, 118664.65, 187500.00, -84487.83, -139928.27, -118839.10, -107071.42, 185936.47
463, 97870.28, 119591.17, 187500.00, -79138.36, -137835.36, -117960.14, -105310.17, 186942.70
464, 98259.54, 120330.39, 187500.00, -80693.59, -138546.64, -117573.75, -103407.34, 187500.00
465, 99164.07, 119649.91, 187500.00, -82585.65, -139451.86, -116904.67, -102314.46, 187270.58
466, 98393.29, 120313.60, 187500.00, -80058.83, -138663.78, -116652.90, -100795.39, 186154.80
467, 98408.05, 121384.34, 187500.00, -77353.26, -136690.50, -116248.49, -99956.71, 185983.11
468, 98795.45, 120060.23, 187500.00, -78115.97, -137577.86, -116306.34, -101447.34, 187329.16
469, 98414.10, 119345.91, 187500.00, -80353.27, -139094.81, -116430.30, -101291.48, 187500.00
470, 98282.14, 118966.46, 187500.00, -79982.81, -139354.45, -117365.12, -103052.98, 187160.27
471, 97876.20, 117997.45, 187500.00, -77425.45, -137306.53, -116613.61, -101664.31, 186132.09
472, 97924.60, 119012.59, 187500.00, -78758.11, -137926.33, -117232.70, -103064.80, 186080.61
473, 97609.41, 118805.40, 187500.00, -81308.13, -139380.84, -116910.04, -102512.77, 185505.08
474, 98089.30, 121303.16, 187500.00, -81868.07, -139346.16, -116619.59, -101052.21, 186393.81
475, 98007.30, 120127.79, 187500.00, -79228.35, -138050.16, -116957.24, -102425.23, 186279.41
476, 98195.41, 118037.26, 187500.00, -78030.25, -137773.88, -117216.48, -103018.43, 185921.42
477, 98575.73, 118274.88, 187500.00, -80760.56, -139074.58, -117285.41, -102641.55, 186891.59
478, 98469.96, 119358.06, 187500.00, -80121.30, -138990.09, -116381.87, -100850.11, 185314.84
479, 98139.27, 119083.36, 187500.00, -77676.40, -137727.17, -115992.48, -99725.50, 185680.31
480, 98715.38, 119061.88, 187500.00, -76391.33, -137296.02, -116342.01, -100851.27, 187314.67
481, 98483.84, 120474.76, 187500.00, -81384.51, -139175.50, -117219.34, -102771.04, 187137.22
482, 98168.39, 118832.62, 187500.00, -83171.11, -140176.30, -117445.25, -104333.31, 187500.00
483, 98714.53, 119529.21, 187500.00, -79727.82, -138346.59, -116528.09, -101887.18, 187500.00
484, 98596.20, 120762.70, 187500.00, -76052.39, -136754.72, -116007.25, -99844.21, 187500.00
485, 98714.40, 120610.73, 187500.00, -80493.86, -138673.17, -117324.62, -102102.56, 187500.00
486, 99156.11, 120418.45, 187500.00, -83325.16, -139820.42, -117087.48, -102693.12, 186041.45
487, 98935.23, 119900.48, 187500.00, -80552.80, -138503.55, -116158.13, -100702.83, 185497.02
488, 99102.31, 120132.20, 187500.00, -76420.34, -136585.83, -115990.04, -99999.45, 186185.63
489, 99207.56, 119787.95, 187500.00, -77243.91, -137773.16, -116150.55, -100782.41, 186894.97
490, 98317.74, 119083.52, 187500.00, -78202.80, -139146.84, -116419.41, -101451.52, 186371.83
491, 98139.00, 118490.21, 187500.00, -75836.13, -138211.92, -115551.20, -100186.82, 186206.66
492, 98295.80, 118996.52, 187500.00, -76629.38, -137470.98, -116497.18, -101824.93, 186409.36
493, 97998.07, 119633.88, 187500.00, -80367.52, -138612.02, -117788.93, -103512.55, 187252.36
494, 97541.94, 119583.20, 187500.00, -84220.21, -140510.86, -118434.58, -105101.45, 186777.00
495, 98019.30, 119238.48, 187500.00, -79940.77, -138836.05, -116362.66, -100907.10, 186643.05
496, 98874.97, 118941.18, 187500.00, -76379.51, -137148.83, -116029.29, -99554.17, 187500.00
497, 99379.20, 119802.26, 187500.00, -77328.80, -137504.03, -116616.71, -100432.02, 187500.00
498, 99034.67, 119938.07, 187500.00, -82191.66, -139201.72, -116969.38, -101441.82, 187500.00
499, 98576.29, 120795.69, 187500.00, -82933.82, -139883.92, -117388.81, -102876.05, 187410.05
500, 98942.48, 120488.33, 187500.00, -76392.70, -137772.61, -115820.77, -99831.31, 187348.25
501, 98679.15, 118701.21, 187500.00, -75267.51, -137044.48, -115533.05, -100029.38, 187500.00
502, 97959.51, 119070.71, 187500.00, -80329.87, -139108.02, -116496.84, -101932.34, 186291.05
503, 98356.97, 119464.99, 187500.00, -83332.89, -140474.94, -117481.59, -104079.77, 186090.78
504, 98314.21, 118112.78, 187500.00, -77793.21, -138375.89, -116291.85, -101494.95, 187056.56
505, 98176.93, 119096.86, 187500.00, -75695.09, -136922.63, -116307.45, -100729.23, 186298.75
506, 98610.88, 120151.62, 187500.00, -78776.58, -138738.45, -116225.70, -100386.87, 186911.97
507, 98187.73, 119863.53, 187500.00, -83835.73, -140774.14, -118330.02, -104740.27, 185305.81
508, 97903.48, 119851.52, 187500.00, -83870.47, -139890.63, -118454.38, -105802.38, 185650.20
509, 98318.59, 119692.98, 187500.00, -78266.77, -137558.42, -117190.08, -102172.95, 186771.34
510, 98316.47, 119757.85, 187500.00, -81330.28, -139051.63, -117259.28, -102775.87, 187474.27
511, 98792.29, 119327.31, 187500.00, -81688.72, -139983.30, -117145.87, -102297.27, 187340.05
512, 98715.29, 119894.44, 187500.00, -82110.49, -139674.08, -117593.71, -103762.52, 186830.80
513, 98568.35, 118575.58, 187500.00, -77717.55, -137608.98, -116971.30, -102558.65, 186700.72
514, 98205.25, 120482.47, 187500.00, -79255.80, -138475.95, -116972.30, -102121.59, 187500.00
515, 98456.55, 120402.49, 187500.00, -81631.02, -139965.02, -117114.55, -102673.67, 187284.20
516, 98483.05, 120728.65, 187500.00, -82641.57, -139521.84, -117255.17, -102937.54, 187500.00
517, 98414.19, 118141.59, 187500.00, -74986.39, -137106.06, -115938.31, -100183.69, 187365.34
518, 98298.37, 119682.10, 187500.00, -75658.22, -137822.03, -115965.05, -100548.34, 186724.33
519, 98768.27, 120113.02, 187500.00, -80248.02, -139710.58, -116791.59, -101841.00, 185997.00
520, 98648.35, 120838.31, 187500.00, -81494.21, -139894.73, -117361.97, -102068.39, 187330.77
521, 98781.23, 121892.09, 187500.00, -78399.41, -137640.67, -116969.20, -100697.34, 187500.00
522, 99147.98, 121519.28, 187500.00, -78695.95, -137507.45, -116718.75, -100246.88, 187500.00
523, 99138.39, 121583.38, 187500.00, -81365.47, -139356.80, -116592.73, -100823.10, 187500.00
524, 99374.24, 120133.78, 187500.00, -79161.92, -139396.34, -116378.22, -100663.45, 186800.09
525, 98620.79, 121020.95, 187500.00, -78954.77, -138144.61, -116483.84, -101051.72, 185946.59
526, 99308.64, 119957.09, 187500.00, -74396.08, -136487.95, -114900.10, -98874.97, 186379.33
527, 99509.94, 120048.33, 187500.00, -77487.75, -138859.20, -115876.83, -100436.02, 186799.88
528, 99054.50, 120257.90, 187500.00, -82061.55, -140155.14, -117138.38, -102553.11, 187500.00
529, 99175.55, 120253.12, 187500.00, -80122.09, -138927.20, -117204.56, -102521.41, 187500.00
530, 99480.01, 119665.83, 187500.00, -76245.06, -137187.58, -116243.51, -101271.37, 186561.00
531, 99618.28, 120374.73, 187500.00, -76925.98, -138223.98, -115772.98, -99555.27, 187307.30
532, 99417.12, 119893.97, 187500.00, -78135.46, -139575.70, -116237.80, -100433.91, 187338.64
533, 99524.45, 118803.16, 187500.00, -77599.42, -138502.16, -116286.34, -100849.57, 187500.00
534, 99841.46, 118609.84, 187500.00, -74635.18, -136889.64, -115558.49, -99224.91, 186336.63
535, 99504.77, 119887.40, 187500.00, -76831.37, -138034.89, -115706.64, -98824.81, 186640.17
536, 98874.13, 122312.27, 187500.00, -80255.77, -139451.14, -116702.01, -100739.27, 186770.66
537, 98228.74, 120747.78, 187500.00, -79732.16, -138940.27, -116872.73, -102198.92, 185735.30
538, 98637.22, 118892.75, 187500.00, -75715.03, -136824.34, -116037.60, -100283.80, 185621.95
539, 98836.17, 118554.07, 187500.00, -78731.05, -137995.47, -116712.40, -101328.41, 187500.00
540, 98387.97, 120221.73, 187500.00, -82112.30, -139907.81, -117527.13, -103142.57, 186587.39
541, 99222.48, 119674.39, 187500.00, -79281.91, -139094.98, -116722.86, -101869.97, 185435.75
542, 98711.76, 121434.09, 187500.00, -77462.63, -137506.83, -116603.50, -101424.32, 186628.52
543, 98086.07, 120020.17, 187500.00, -79873.04, -138337.22, -117307.09, -102969.56, 186667.66
544, 98635.32, 119983.91, 187500.00, -79331.48, -139448.86, -116522.41, -101513.55, 185709.03
545, 99265.50, 120046.25, 187500.00, -77340.72, -139096.48, -115958.25, -99754.09, 186409.03
546, 99235.82, 119989.50, 187500.00, -74932.48, -137378.94, -115668.35, -99643.88, 187500.00
547, 98281.09, 120003.80, 187500.00, -78303.99, -137940.25, -117014.35, -102905.08, 186680.11
548, 98200.71, 119790.44, 187500.00, -81822.16, -139768.97, -117400.66, -103326.79, 184779.47
549, 97985.06, 120901.88, 187500.00, -84401.13, -140639.66, -118175.66, -104724.34, 186212.69
550, 97786.13, 119561.02, 187500.00, -82399.95, -139039.05, -117842.17, -103926.96, 186831.03
551, 98338.20, 120110.27, 187500.00, -77581.96, -137347.48, -116352.05, -101256.91, 185892.55
552, 98698.05, 121385.68, 187500.00, -79964.34, -139058.95, -116599.15, -101652.11, 185560.27
553, 99109.91, 121760.25, 187500.00, -79116.95, -139326.95, -116168.94, -99724.31, 187500.00
554, 99602.90, 121815.73, 187500.00, -78645.28, -138070.66, -116080.05, -99482.07, 187500.00
555, 99723.89, 120851.05, 187500.00, -77569.65, -137100.25, -116174.23, -100424.35, 186700.50
556, 99560.37, 121146.20, 187500.00, -78531.94, -138464.48, -116027.56, -100415.23, 186319.31
557, 99547.20, 121032.05, 187500.00, -81059.23, -139585.95, -116858.20, -101538.95, 185211.22
558, 98474.16, 118691.56, 187500.00, -83293.35, -139973.23, -118615.70, -105368.34, 185066.05
559, 98815.78, 120086.11, 187500.00, -76532.91, -137566.80, -117162.16, -102030.50, 186921.55
560, 98947.10, 121578.64, 187500.00, -78284.68, -138232.06, -116856.34, -101336.19, 187411.39
561, 99307.91, 121625.09, 187500.00, -80311.42, -139346.22, -116564.79, -100796.80, 187282.09
562, 99069.30, 122100.34, 187500.00, -81534.16, -139081.06, -116673.35, -101813.22, 186113.33
563, 98954.43, 122248.66, 187500.00, -76743.13, -136965.11, -116493.98, -101035.73, 187084.23
564, 99157.05, 122313.44, 187500.00, -78218.97, -137604.89, -116271.22, -100667.09, 186082.63
565, 99740.95, 120343.38, 187500.00, -78808.20, -139288.83, -116115.63, -100230.05, 186657.09
566, 99688.42, 121290.64, 187500.00, -76927.80, -138662.22, -115566.07, -98779.27, 187500.00
567, 99215.12, 121693.76, 187500.00, -74694.81, -136945.02, -115801.50, -99314.85, 187500.00
568, 99994.84, 122952.63, 187500.00, -74726.38, -137306.78, -115881.59, -100082.19, 187500.00
569, 99841.64, 122383.62, 187500.00, -78714.10, -139174.56, -115808.81, -100524.46, 187500.00
570, 98405.07, 121834.95, 187500.00, -81391.39, -139583.44, -116765.30, -101274.66, 187301.89
571, 99008.59, 121393.80, 187500.00, -76824.58, -137550.47, -115868.53, -99085.64, 187500.00
572, 99542.55, 120951.86, 187500.00, -73502.21, -136598.38, -115112.71, -98096.77, 187500.00
573, 99336.70, 122702.18, 187500.00, -78598.99, -138903.33, -116208.75, -99795.30, 186887.89
574, 99045.47, 122689.39, 187500.00, -79380.66, -139337.70, -116382.87, -99736.21, 186294.14
575, 99331.22, 119647.90, 187500.00, -79780.26, -138486.02, -116746.40, -100968.99, 186831.30
576, 98849.29, 120200.48, 187500.00, -78332.96, -137492.50, -116758.18, -101238.83, 187241.30
577, 99724.56, 122489.16, 187500.00, -78482.47, -138509.78, -116299.38, -100410.07, 187276.59
578, 99569.82, 123073.39, 187500.00, -79199.47, -139220.05, -115758.81, -99656.19, 186294.31
579, 98999.49, 122184.45, 187500.00, -77554.31, -137884.08, -115842.83, -99031.59, 186464.28
580, 99894.10, 121061.70, 187500.00, -73823.95, -136789.44, -115829.22, -98935.39, 186741.95
581, 99752.91, 122266.23, 187500.00, -76521.89, -137881.78, -115689.20, -97962.64, 185910.47
582, 98780.80, 123087.61, 187500.00, -77112.09, -138742.33, -115318.66, -98341.80, 186306.17
583, 99574.27, 122556.13, 187500.00, -75916.94, -137773.08, -115064.88, -98434.66, 185848.11
584, 99137.05, 121053.34, 187500.00, -72782.84, -136094.16, -115141.99, -98201.20, 186442.47
585, 98864.24, 122355.44, 187500.00, -78048.84, -138090.95, -116399.48, -100698.02, 186363.39
586, 99277.30, 123523.65, 187500.00, -79958.02, -139382.55, -116341.43, -100552.56, 185807.39
587, 99040.42, 122970.45, 187500.00, -79056.48, -139001.69, -116185.62, -100537.52, 186004.58
588, 98739.07, 121080.42, 187500.00, -75067.99, -137431.59, -116069.86, -101117.66, 186709.80
589, 99351.78, 121738.19, 187500.00, -80061.40, -138875.98, -117289.86, -103555.65, 187102.17
590, 98371.05, 123033.90, 187500.00, -80328.66, -139417.84, -116152.09, -100887.63, 186683.70
591, 98681.92, 122086.52, 187500.00, -76819.41, -138385.53, -115012.48, -97985.75, 186247.16
592, 99528.41, 119416.18, 187500.00, -74705.77, -136589.61, -114979.42, -97910.25, 185950.41
593, 99220.27, 119801.08, 187500.00, -75584.26, -137265.91, -115769.54, -99648.95, 186225.44
594, 97953.74, 124010.00, 187500.00, -78574.90, -139060.97, -116283.45, -100244.20, 186814.05
595, 97513.41, 123855.33, 187500.00, -78532.88, -139276.27, -115949.40, -99937.75, 187450.22
596, 98857.43, 121855.38, 187500.00, -77683.93, -137898.92, -116107.27, -100256.16, 187500.00
597, 99509.67, 121340.66, 187500.00, -75051.91, -137412.00, -115804.41, -99082.53, 187451.20
598, 98422.87, 122980.63, 187500.00, -78732.41, -138931.13, -115893.92, -99662.71, 185727.41
599, 97581.63, 122970.48, 187500.00, -81888.50, -139709.70, -116703.57, -101020.77, 185373.61
600, 98865.54, 121766.98, 187500.00, -78457.13, -138237.20, -116147.28, -101037.81, 187500.00
601, 98828.86, 119981.21, 187500.00, -80576.56, -138400.67, -117583.18, -104352.65, 187500.00
602, 97380.83, 121626.43, 187500.00, -83717.77, -140211.64, -117967.41, -104495.14, 187129.25
603, 96557.32, 122786.60, 187500.00, -81819.70, -140242.02, -117063.75, -102735.88, 186673.19
604, 97615.67, 122143.63, 187500.00, -76526.98, -137865.98, -115483.66, -99165.16, 187329.16
605, 98725.35, 121603.52, 187500.00, -74006.27, -136430.89, -115518.41, -98770.88, 187500.00
606, 97897.62, 123358.13, 187500.00, -77519.06, -138238.73, -116313.02, -99845.04, 187500.00
607, 96219.12, 124297.29, 187500.00, -79137.17, -139584.53, -116537.25, -99913.08, 187500.00
608, 96702.94, 123970.30, 187500.00, -78628.16, -138568.34, -116034.83, -99334.37, 187500.00
609, 98377.31, 122856.72, 187500.00, -77356.01, -137342.72, -116233.11, -100483.98, 187349.92
610, 97402.48, 121952.74, 187500.00, -77364.05, -138004.53, -115699.27, -99911.38, 187160.63
611, 96297.57, 124912.01, 187500.00, -80895.38, -139555.38, -116490.59, -101280.29, 186980.56
612, 96862.35, 123904.97, 187500.00, -81214.62, -139467.22, -117198.44, -102494.75, 186463.14
613, 98073.59, 120529.77, 187500.00, -75725.74, -137289.22, -116331.23, -100022.73, 186302.55
614, 97840.87, 121085.99, 187500.00, -77017.34, -138126.94, -116582.98, -101384.67, 186011.19
615, 96046.07, 123532.52, 187500.00, -80582.73, -139692.61, -116513.80, -101323.56, 186826.00
616, 95095.31, 124279.25, 187500.00, -78573.13, -139237.30, -115984.70, -99562.35, 187500.00
617, 97200.23, 122536.38, 187500.00, -76050.18, -137639.94, -116086.59, -99842.60, 187500.00
618, 97887.95, 122675.51, 187500.00, -78180.41, -138057.83, -116708.89, -101518.22, 186913.48
619, 96745.25, 124741.04, 187500.00, -81156.21, -139712.48, -116823.60, -101197.90, 187087.17
620, 96462.48, 124055.77, 187500.00, -80118.91, -139383.47, -116155.28, -99708.67, 187500.00
621, 97668.70, 120976.45, 187500.00, -78513.59, -137802.80, -115828.70, -99775.52, 186225.55
622, 98772.84, 121148.64, 187500.00, -77411.82, -137430.30, -116395.97, -101161.63, 185364.31
623, 97390.88, 123534.09, 187500.00, -80270.03, -139138.59, -116718.39, -101252.33, 185450.36
624, 95363.16, 123714.24, 187500.00, -81901.30, -140264.70, -117396.32, -102226.28, 187279.58
625, 96945.05, 121065.41, 187500.00, -79145.49, -138542.14, -116805.12, -101255.23, 187500.00
626, 98416.07, 120863.09, 187500.00, -78003.14, -138034.78, -117104.23, -102619.25, 187495.44
627, 96958.82, 121456.20, 187500.00, -82406.23, -139753.56, -118008.27, -104204.97, 186245.25
628, 96327.77, 122079.99, 187500.00, -82789.30, -140548.72, -118058.69, -104331.55, 185778.38
629, 96852.32, 121706.97, 187500.00, -77063.09, -138370.38, -116139.70, -100621.31, 186975.08
630, 98434.93, 120227.19, 187500.00, -75727.13, -137126.42, -116064.91, -100845.28, 185645.56
631, 98543.32, 120383.34, 187500.00, -78967.17, -138416.48, -116752.95, -101181.90, 186510.34
632, 96682.78, 122889.98, 187500.00, -82430.66, -140036.05, -117051.05, -101521.93, 186965.89
633, 95953.76, 123742.25, 187500.00, -79853.59, -138965.50, -116650.69, -100341.58, 187500.00
634, 96960.86, 121222.42, 187500.00, -81304.40, -138339.70, -117819.44, -104066.43, 187500.00
635, 96709.11, 121960.01, 187500.00, -81154.51, -139068.06, -117658.41, -103580.80, 187500.00
636, 95629.45, 123383.55, 187500.00, -81234.41, -140028.44, -117039.30, -101625.09, 187500.00
637, 96129.33, 124933.71, 187500.00, -81998.40, -139901.22, -117008.67, -102052.67, 187500.00
638, 97471.84, 122163.97, 187500.00, -82378.13, -138799.09, -118310.57, -104862.02, 187496.22
639, 97168.82, 120873.16, 187500.00, -82363.29, -139056.97, -118685.99, -105018.75, 187369.84
640, 95737.81, 122598.45, 187500.00, -81802.66, -140384.13, -118322.13, -104070.16, 186782.39
641, 96187.53, 123868.09, 187500.00, -81455.55, -140144.84, -117621.94, -103120.35, 185413.13
642, 97634.85, 122454.34, 187500.00, -80118.46, -138521.95, -117453.20, -103469.59, 186670.61
643, 97816.84, 120248.76, 187500.00, -79556.65, -138359.80, -117439.55, -104142.52, 186025.92
644, 96805.40, 122900.15, 187500.00, -78462.60, -139384.09, -116730.28, -101902.18, 186603.55
645, 96366.55, 123910.16, 187500.00, -79975.19, -139646.47, -116672.05, -101499.29, 187479.23
646, 97498.77, 123645.98, 187500.00, -77397.25, -138008.53, -115840.10, -100456.07, 187500.00
647, 98329.50, 122688.70, 187500.00, -76775.80, -137086.69, -116097.21, -100200.25, 187061.83
648, 97175.75, 123876.18, 187500.00, -79658.71, -138883.30, -116649.88, -100366.75, 186456.70
649, 95721.23, 123357.98, 187500.00, -79079.24, -139711.58, -116164.00, -100882.67, 187081.38
650, 96479.73, 123247.88, 187500.00, -77563.61, -138780.72, -116508.45, -101564.58, 186753.33
651, 97917.49, 121838.48, 187500.00, -76037.48, -137811.06, -116905.14, -102708.36, 187500.00
652, 97032.61, 123987.85, 187500.00, -78653.98, -139141.30, -117012.54, -102497.19, 187500.00
653, 96531.10, 125269.48, 187500.00, -80051.01, -139837.25, -116482.58, -100945.37, 187500.00
654, 96776.84, 124535.35, 187500.00, -77917.20, -138423.31, -115925.28, -99729.21, 187274.27
655, 97620.80, 122831.55, 187500.00, -77205.02, -137344.14, -116504.75, -100875.01, 186557.06
656, 96968.23, 123249.62, 187500.00, -80181.20, -138904.28, -117067.62, -101910.34, 187500.00
657, 95246.99, 123554.74, 187500.00, -83207.88, -140558.67, -117922.01, -103647.13, 187500.00
658, 95085.91, 122432.44, 187500.00, -82783.64, -139841.73, -117827.51, -103980.13, 186711.80
659, 97827.34, 121615.01, 187500.00, -75803.93, -137056.59, -116305.82, -100360.42, 187152.36
660, 97599.25, 123655.19, 187500.00, -76756.36, -138217.30, -116763.50, -101405.28, 187500.00
661, 95907.24, 124035.37, 187500.00, -81513.01, -140007.17, -117126.71, -102757.54, 187500.00
662, 95834.51, 123506.10, 187500.00, -81528.68, -140045.30, -117435.10, -103454.22, 187500.00
663, 96529.49, 122790.66, 187500.00, -79112.59, -138445.89, -117295.71, -103047.75, 186982.53
664, 96549.83, 123210.39, 187500.00, -81152.90, -139335.09, -118351.50, -104892.53, 185338.17
665, 95609.96, 123581.94, 187500.00, -85969.81, -141160.52, -118970.38, -105989.87, 185781.25
666, 95037.89, 124232.53, 187500.00, -85944.04, -140996.52, -118902.58, -105776.81, 186040.00
667, 96093.12, 123026.05, 187500.00, -79039.77, -138268.38, -116721.38, -101891.61, 187239.73
668, 97013.97, 122186.95, 187500.00, -78157.27, -137993.52, -116798.23, -101588.95, 187151.39
669, 95755.38, 123295.93, 187500.00, -79913.59, -139366.91, -116593.58, -101285.36, 185403.67
670, 94757.71, 120567.14, 187500.00, -80905.18, -139568.44, -116824.54, -101363.19, 185663.39
671, 95547.91, 121591.23, 187500.00, -76347.95, -137681.42, -115952.95, -99620.29, 186554.22
672, 97552.91, 122223.70, 187500.00, -77223.02, -137572.84, -116463.80, -101546.61, 187500.00
673, 96097.27, 123768.60, 187500.00, -82308.59, -139470.83, -117274.50, -101996.28, 187500.00
674, 95729.01, 124706.59, 187500.00, -80824.66, -139876.78, -116764.77, -101198.44, 187500.00
675, 96533.96, 124817.37, 187500.00, -78120.10, -138641.47, -116500.06, -101164.62, 186921.11
676, 97071.79, 123240.98, 187500.00, -74779.81, -136915.88, -115775.98, -99784.15, 186948.64
677, 96099.38, 123728.84, 187500.00, -78820.32, -138796.61, -116765.38, -101244.21, 186800.03
678, 96753.75, 123402.95, 187500.00, -79769.55, -139662.34, -116493.45, -101085.41, 187500.00
679, 96619.16, 122924.78, 187500.00, -79100.16, -139215.73, -116677.98, -101672.41, 187500.00
680, 96960.48, 122860.56, 187500.00, -76993.02, -137886.09, -116737.39, -101937.34, 187500.00
681, 96275.82, 123223.51, 187500.00, -78910.35, -138701.31, -116601.31, -102062.02, 186896.55
682, 95961.00, 122882.31, 187500.00, -84322.11, -140674.75, -118075.86, -104805.70, 186181.69
683, 95463.18, 123010.90, 187500.00, -81955.48, -139900.61, -117860.14, -103426.10, 187002.89
684, 96431.32, 123261.02, 187500.00, -81048.80, -138544.59, -118066.42, -104571.13, 186934.78
685, 95369.30, 123050.02, 187500.00, -84558.41, -139572.94, -118486.39, -106078.89, 186605.55
686, 94768.29, 123500.83, 187500.00, -84097.25, -140646.64, -117746.02, -104363.02, 186421.00
687, 95720.41, 123510.21, 187500.00, -82072.12, -140052.81, -117587.18, -103019.27, 185140.08
688, 95907.66, 122971.83, 187500.00, -77310.97, -138032.30, -116401.38, -101944.52, 185397.67
689, 95994.39, 124538.10, 187500.00, -77037.19, -138128.44, -116282.55, -101451.13, 186854.83
690, 96007.53, 124420.60, 187500.00, -80771.89, -140035.19, -117197.23, -102457.80, 186558.56
691, 95215.59, 120755.41, 187500.00, -84573.21, -140780.72, -118132.16, -105498.02, 185163.63
692, 95076.70, 121209.17, 187500.00, -82993.61, -139629.02, -118797.38, -106392.20, 185892.52
693, 95215.79, 122202.48, 187500.00, -78865.36, -138055.81, -117005.95, -102009.58, 186010.52
694, 95412.84, 123125.27, 187500.00, -81129.27, -139409.25, -116755.65, -101374.70, 186736.75
695, 95196.37, 123343.38, 187500.00, -82598.57, -140170.59, -117410.76, -102925.78, 186588.84
696, 95640.43, 124202.31, 187500.00, -81069.02, -138876.30, -117459.71, -102429.26, 186645.11
697, 95167.60, 121970.29, 187500.00, -79350.34, -138470.17, -117001.19, -102842.25, 186457.48
698, 94980.45, 119329.48, 187500.00, -83091.38, -140255.16, -118345.04, -104375.22, 186819.55
699, 94455.59, 122024.07, 187500.00, -83026.58, -140795.59, -118185.11, -103633.16, 187500.00
700, 94735.36, 122933.36, 187500.00, -80024.02, -139183.97, -117324.21, -102029.66, 187166.38
701, 95565.77, 123383.28, 187500.00, -80411.47, -138273.31, -117272.11, -103510.34, 186915.97
702, 95156.38, 123829.24, 187500.00, -81237.44, -139199.03, -117013.79, -102509.14, 185153.78
703, 95183.85, 124670.29, 187500.00, -82019.37, -140084.03, -117058.07, -102333.62, 185931.73
704, 95533.07, 124801.56, 187500.00, -80513.73, -138950.22, -116858.20, -101351.16, 186103.03
705, 95330.25, 124273.44, 187500.00, -78689.58, -137833.72, -117294.10, -102513.12, 185628.13
706, 95873.27, 123862.97, 187500.00, -78591.10, -138538.31, -116947.36, -101975.74, 187394.67
707, 96020.12, 124195.07, 187500.00, -79048.53, -139535.16, -116775.37, -101201.37, 187500.00
708, 96322.96, 125132.51, 187500.00, -78368.21, -139124.77, -116424.35, -100856.90, 187066.70
709, 95537.37, 123716.68, 187500.00, -77701.50, -137792.06, -116696.51, -101735.15, 187190.63
710, 95177.77, 121911.17, 187500.00, -79508.95, -138379.52, -117181.88, -102598.08, 186965.45
711, 95777.36, 123074.91, 187500.00, -82581.67, -140002.73, -117813.27, -102655.73, 187500.00
712, 95347.69, 123079.30, 187500.00, -81124.34, -139752.88, -117247.66, -102625.04, 187500.00
713, 96176.89, 123050.93, 187500.00, -78296.05, -137943.41, -117209.03, -102273.51, 187385.58
714, 96432.53, 122445.49, 187500.00, -78535.18, -138129.28, -117202.95, -102791.63, 186955.66
715, 95062.15, 121587.77, 187500.00, -81874.17, -139565.67, -117206.38, -102140.38, 187105.98
716, 95187.11, 122021.86, 187500.00, -83719.04, -140361.66, -117816.13, -104625.36, 185535.30
717, 95814.46, 124486.52, 187500.00, -82013.17, -139086.42, -118233.93, -105755.33, 186127.84
718, 96849.13, 124865.09, 187500.00, -79207.45, -138097.47, -118157.38, -104273.19, 187094.48
719, 96186.73, 123784.90, 187500.00, -80997.38, -139292.63, -117514.09, -103196.86, 187500.00
720, 95246.97, 124963.75, 187500.00, -80311.65, -139536.84, -117233.64, -101722.49, 186075.16
721, 97010.77, 124337.92, 187500.00, -77962.52, -138023.67, -116532.20, -100200.70, 187384.03
722, 98862.66, 123737.76, 187500.00, -75039.54, -136583.84, -116113.02, -99856.66, 186665.95
723, 97159.79, 124458.63, 187500.00, -77329.19, -137890.75, -116334.95, -100659.36, 185720.95
724, 95819.98, 122159.07, 187500.00, -79362.70, -139156.61, -116836.68, -101894.54, 186782.08
725, 96990.32, 122398.55, 187500.00, -79393.77, -138686.48, -117133.44, -102199.46, 186820.55
726, 98760.22, 122303.06, 187500.00, -77367.19, -137447.84, -117527.93, -102812.70, 186230.92
727, 98507.66, 123738.85, 187500.00, -77681.63, -138497.02, -117204.63, -102449.04, 186189.11
728, 97511.36, 123426.13, 187500.00, -81400.60, -139636.23, -117478.57, -102976.14, 187392.91
729, 98536.86, 125214.89, 187500.00, -78398.95, -138385.33, -116220.95, -100805.07, 187112.69
730, 98525.73, 123507.66, 187500.00, -75481.08, -136848.94, -116372.77, -101042.71, 186033.98
731, 98828.86, 124081.37, 187500.00, -77614.40, -137737.59, -117151.95, -101406.82, 186008.27
732, 98381.87, 124300.80, 187500.00, -80266.50, -139143.67, -116792.91, -101332.23, 186056.27
733, 98316.96, 124255.29, 187500.00, -76929.92, -138107.25, -115668.75, -98897.21, 185667.06
734, 99025.29, 125843.42, 187500.00, -76203.42, -136573.88, -116028.73, -99684.71, 186189.56
735, 99158.62, 125070.23, 187500.00, -77382.54, -136932.42, -116435.42, -100030.02, 186672.95
736, 98137.37, 123306.88, 187500.00, -80043.98, -138849.44, -116805.90, -101506.47, 186277.17
737, 99371.09, 124574.18, 187500.00, -78496.20, -138971.44, -116939.34, -100951.23, 187344.14
738, 99570.83, 124312.30, 187500.00, -75077.49, -137015.11, -116814.88, -100091.84, 187455.88
739, 98980.09, 123469.67, 187500.00, -77341.21, -137135.34, -117038.63, -100994.21, 186378.25
740, 97944.23, 122754.57, 187500.00, -83050.63, -139405.30, -117592.86, -103257.37, 187500.00
741, 98102.90, 123245.23, 187500.00, -80525.98, -139404.27, -117612.95, -102391.46, 187500.00
742, 99794.61, 123659.41, 187500.00, -76268.53, -137187.09, -116291.34, -100496.28, 187188.88
743, 99441.05, 124592.77, 187500.00, -73116.60, -135981.23, -115515.31, -98674.66, 187500.00
744, 99112.98, 124293.42, 187500.00, -78554.13, -138250.86, -116601.83, -100825.34, 187044.47
745, 98841.00, 120854.98, 187500.00, -80496.52, -139390.38, -117425.34, -102820.59, 185500.16
746, 98508.88, 122170.16, 187500.00, -79568.20, -138457.89, -117563.84, -103192.50, 187213.41
747, 97679.94, 124103.19, 187500.00, -78416.82, -137604.28, -117941.57, -103614.99, 186440.94
748, 98715.18, 121411.30, 187500.00, -77743.50, -138106.75, -117010.13, -101795.34, 186033.31
749, 97685.81, 121045.45, 187500.00, -80111.13, -139344.39, -117420.88, -102618.78, 185154.73
750, 98623.74, 123148.45, 187500.00, -78079.11, -138368.20, -116751.56, -101368.42, 185763.28
751, 99529.84, 123109.60, 187500.00, -74256.09, -136504.38, -116064.09, -100720.38, 186427.25
752, 98701.59, 123149.13, 187500.00, -75809.74, -137169.70, -115762.67, -99895.84, 187269.30
753, 98309.32, 123705.44, 187500.00, -80445.76, -139079.52, -117028.48, -102242.93, 186936.95
754, 97975.90, 122563.28, 187500.00, -82883.98, -139303.48, -117644.16, -104478.60, 185559.55
755, 97672.07, 122573.90, 187500.00, -77507.82, -137497.33, -117081.32, -102927.16, 185490.27
756, 97950.02, 124295.84, 187500.00, -78404.64, -137971.75, -117491.29, -102680.67, 186454.30
757, 96635.39, 122731.59, 187500.00, -81498.30, -139533.05, -118149.10, -103634.33, 186514.44
758, 97091.34, 124945.58, 187500.00, -81284.48, -139301.08, -118026.57, -103421.77, 187106.06
759, 97979.05, 124985.83, 187500.00, -76582.95, -137282.75, -117207.34, -102072.92, 187500.00
760, 97706.27, 124312.44, 187500.00, -78904.43, -138153.09, -117759.09, -103931.90, 187500.00
761, 96869.62, 123111.52, 187500.00, -81388.38, -138927.13, -117467.60, -102801.57, 187500.00
762, 96418.60, 123481.36, 187500.00, -81393.43, -138820.20, -117143.25, -101869.75, 186758.39
763, 98772.84, 124045.09, 187500.00, -77536.97, -137184.25, -116685.69, -101446.54, 187240.98
764, 98864.22, 124515.26, 187500.00, -78269.19, -137101.69, -117142.63, -102747.10, 187500.00
765, 97712.97, 122928.02, 187500.00, -77791.40, -138345.95, -116046.14, -100171.30, 186357.39
766, 97275.98, 124141.20, 187500.00, -78764.46, -138904.28, -116155.84, -100522.99, 186681.73
767, 98036.76, 123735.07, 187500.00, -77690.46, -137729.09, -116298.55, -100951.05, 186400.09
768, 98664.28, 124758.00, 187500.00, -75094.41, -136520.56, -115371.85, -99066.82, 186795.33
769, 97839.98, 127391.86, 187500.00, -76368.63, -137433.66, -115270.85, -98521.14, 187184.31
770, 96665.75, 125870.60, 187500.00, -77309.97, -138506.42, -115966.73, -100040.75, 186612.56
771, 97225.21, 123918.42, 187500.00, -80141.23, -138375.47, -117286.55, -102600.92, 185662.23
772, 97778.58, 123336.12, 187500.00, -76795.95, -137019.16, -117290.28, -102919.27, 183999.23
773, 97053.75, 124856.86, 187500.00, -76963.52, -137496.61, -116227.97, -100253.52, 185863.56
774, 95641.63, 124999.42, 187500.00, -79276.70, -138714.63, -116678.94, -100657.44, 187500.00
775, 96536.04, 122328.43, 187500.00, -76097.95, -137924.09, -116478.16, -100625.29, 187500.00
776, 97665.92, 123789.68, 187500.00, -75689.24, -136974.30, -116951.50, -101836.76, 186723.25
777, 96698.41, 123942.85, 187500.00, -77486.77, -137958.19, -117105.19, -102401.92, 185986.28
778, 95872.40, 123009.38, 187500.00, -82121.65, -139526.33, -117524.62, -103132.33, 186122.56
779, 96056.33, 121472.20, 187500.00, -85252.73, -139904.45, -118913.24, -105551.52, 186488.53
780, 97539.37, 123345.37, 187500.00, -79720.55, -137462.47, -117505.28, -103383.79, 186531.25
781, 97016.00, 124670.16, 187500.00, -76829.67, -137410.11, -116890.70, -101569.36, 186349.75
782, 96208.25, 124196.32, 187500.00, -80883.18, -139321.14, -117678.33, -102750.20, 185558.20
783, 96046.49, 123649.00, 187500.00, -79539.87, -139244.25, -117394.35, -102206.92, 186402.86
784, 97474.34, 123251.05, 187500.00, -76134.87, -137114.88, -116472.03, -101231.59, 186810.16
785, 97328.59, 123686.34, 187500.00, -79351.39, -137662.28, -117210.87, -102199.01, 186068.30
786, 95555.18, 122715.66, 187500.00, -82357.95, -139300.27, -117629.23, -103367.61, 186714.27
787, 95132.80, 122823.37, 187500.00, -80487.49, -138779.11, -116814.03, -102180.03, 187500.00
788, 95802.19, 124126.52, 187500.00, -77604.74, -137363.06, -116922.84, -102012.62, 187500.00
789, 96067.33, 124501.31, 187500.00, -75423.50, -136836.64, -116414.48, -100999.66, 187500.00
790, 95591.16, 123700.95, 187500.00, -81457.76, -138958.98, -117271.28, -102492.18, 187500.00
791, 96084.67, 121259.69, 187500.00, -81403.20, -139366.56, -117023.76, -102245.10, 186990.73
792, 96091.33, 123491.55, 187500.00, -78142.70, -137734.50, -116389.84, -100926.86, 186338.13
793, 96341.67, 123220.89, 187500.00, -74286.89, -136582.03, -116104.10, -100462.82, 187500.00
794, 95986.16, 123978.22, 187500.00, -78584.39, -138185.00, -116461.68, -100736.56, 187500.00
795, 95972.29, 125304.91, 187500.00, -78993.32, -138941.52, -116309.31, -100032.95, 186750.14
796, 96081.85, 125490.67, 187500.00, -77850.92, -137777.56, -116323.05, -100003.96, 187257.00
797, 96755.49, 125349.79, 187500.00, -74203.34, -136705.55, -116132.13, -100428.82, 185550.11
798, 96518.31, 125157.12, 187500.00, -76143.72, -137631.91, -116164.85, -99938.36, 185931.38
799, 96822.70, 124165.68, 187500.00, -78016.55, -138899.34, -116534.88, -100269.12, 186725.75
800, 96723.51, 124843.49, 187500.00, -79071.69, -138658.02, -116970.14, -101205.48, 186208.47
801, 96390.80, 124832.56, 187500.00, -77288.06, -137377.66, -116789.41, -102186.52, 184998.75
802, 96383.34, 124541.08, 187500.00, -76594.42, -138002.22, -116218.90, -101194.97, 186752.53
803, 95472.70, 122255.14, 187500.00, -81097.42, -139523.47, -117171.93, -102438.48, 186648.53
804, 95358.88, 123361.30, 187500.00, -77906.84, -138841.56, -116335.66, -101650.39, 184526.14
805, 96437.98, 123826.49, 187500.00, -72807.99, -136541.22, -115263.56, -99060.45, 184408.55
806, 96169.36, 123720.03, 187500.00, -76729.29, -137339.33, -116290.83, -100841.16, 186427.38
807, 95046.21, 124416.31, 187500.00, -79710.23, -138818.05, -116487.16, -100519.97, 186197.64
808, 94847.95, 124762.76, 187500.00, -79030.63, -138669.23, -116443.95, -100218.65, 186180.64
809, 95485.84, 124672.30, 187500.00, -75281.08, -136833.34, -116023.16, -100175.27, 186531.02
810, 95442.13, 125971.08, 187500.00, -77903.13, -137206.02, -116517.85, -101310.77, 186210.98
811, 94341.77, 125511.43, 187500.00, -78119.59, -138461.30, -115714.87, -99158.13, 186530.36
812, 94224.91, 124591.55, 187500.00, -79322.80, -139112.16, -116527.93, -100931.11, 187500.00
813, 95846.47, 125221.29, 187500.00, -78618.70, -138225.58, -117334.27, -102162.53, 186479.02
814, 95166.82, 124229.74, 187500.00, -77241.19, -137730.33, -117335.50, -102897.98, 186381.88
815, 94640.13, 123371.03, 187500.00, -79575.78, -138966.95, -116622.84, -101672.47, 187364.28
816, 93929.05, 123369.06, 187500.00, -80203.16, -139348.42, -116557.34, -101429.11, 187156.42
817, 94927.72, 123671.10, 187500.00, -77689.59, -138233.67, -116728.16, -101891.83, 187500.00
818, 96139.48, 123726.42, 187500.00, -76896.77, -137497.44, -117215.41, -101791.36, 187500.00
819, 95457.79, 122910.31, 187500.00, -80834.88, -138864.44, -117629.36, -102037.84, 187500.00
820, 94562.16, 124116.75, 187500.00, -78662.13, -139157.06, -116480.37, -100406.63, 187380.05
821, 94965.32, 124968.82, 187500.00, -77860.31, -138477.25, -116204.73, -100499.41, 186493.63
822, 96249.45, 126223.83, 187500.00, -75498.60, -137105.63, -116100.55, -100549.03, 186634.27
823, 94673.52, 125195.58, 187500.00, -77872.73, -137710.19, -116170.82, -99604.47, 187500.00
824, 92986.20, 121397.08, 187500.00, -81713.82, -139711.94, -117336.53, -101991.68, 187500.00
825, 93816.98, 120980.29, 187500.00, -81434.87, -139224.45, -117203.23, -102874.37, 185906.11
826, 95305.09, 123661.27, 187500.00, -76096.78, -137086.94, -115725.93, -100369.23, 186579.45
827, 94528.12, 123320.16, 187500.00, -77733.80, -137789.17, -116580.93, -100817.85, 186424.67
828, 92428.55, 123170.13, 187500.00, -79023.43, -139326.83, -116549.86, -100975.09, 186782.59
829, 93667.91, 122737.74, 187500.00, -79248.30, -138698.77, -116516.31, -100283.31, 186550.25
830, 95833.39, 123552.80, 187500.00, -75529.34, -137083.84, -116338.05, -99718.55, 186570.47
831, 95228.45, 122456.38, 187500.00, -75870.65, -137604.22, -116564.25, -100307.72, 186571.59
832, 93216.63, 121135.09, 187500.00, -80217.05, -139579.36, -116714.08, -101724.91, 186865.56
833, 92586.45, 123390.25, 187500.00, -78651.67, -139090.88, -116208.93, -100620.55, 187335.11
834, 93760.89, 122044.45, 187500.00, -80963.52, -138576.75, -117901.54, -103809.59, 187127.28
835, 94217.56, 123405.34, 187500.00, -77733.91, -137813.05, -116766.42, -101341.27, 186835.91
836, 92737.23, 123795.27, 187500.00, -78038.12, -138466.53, -116051.93, -99202.36, 187500.00
837, 92399.20, 122250.91, 187500.00, -81025.95, -139337.97, -116889.47, -100993.36, 187500.00
838, 93742.99, 124588.20, 187500.00, -79388.52, -138464.97, -117234.27, -102103.75, 186211.22
839, 94297.55, 124720.41, 187500.00, -76809.66, -137533.09, -116966.98, -101863.06, 185722.41
840, 92725.67, 122172.09, 187500.00, -79246.19, -139048.16, -116881.58, -101087.75, 186249.19
841, 91919.53, 120196.23, 187500.00, -82571.97, -140201.69, -117621.89, -103066.95, 187305.25
842, 93803.20, 122219.40, 187500.00, -81293.47, -139096.72, -117353.00, -103483.14, 185711.47
843, 95082.09, 122880.07, 187500.00, -76555.55, -137541.05, -116718.80, -102343.23, 185434.84
844, 93592.63, 120977.12, 187500.00, -78500.82, -138729.38, -116558.76, -102199.46, 186826.45
845, 92166.14, 120943.12, 187500.00, -80836.18, -139732.75, -116630.26, -101935.62, 186417.78
846, 93360.82, 123018.92, 187500.00, -79318.09, -138661.05, -116367.52, -100764.79, 187410.70
847, 94267.56, 125118.60, 187500.00, -74877.85, -136887.39, -116165.27, -99999.27, 186601.45
848, 93318.06, 122919.21, 187500.00, -80249.17, -138624.95, -117041.13, -102734.29, 186250.23
849, 92623.97, 121490.24, 187500.00, -82770.12, -140018.28, -117232.30, -103037.72, 187500.00
850, 92286.64, 122001.43, 187500.00, -77853.41, -138967.19, -116550.42, -101296.13, 185844.38
851, 94071.38, 123104.64, 187500.00, -76018.68, -137320.78, -116596.06, -101229.62, 187426.55
852, 93867.17, 124316.82, 187500.00, -78095.02, -137783.19, -116372.27, -100452.40, 186972.14
853, 92637.54, 122817.31, 187500.00, -77874.16, -139303.48, -116320.13, -100751.96, 186439.94
854, 92644.70, 122935.98, 187500.00, -78141.09, -138996.38, -116250.10, -99888.65, 186820.88
855, 93077.09, 122394.98, 187500.00, -75729.63, -137664.03, -116263.34, -101090.61, 187386.98
856, 93740.51, 122689.75, 187500.00, -75176.78, -137622.08, -116194.89, -101145.51, 186576.58
857, 93451.95, 122511.31, 187500.00, -80450.99, -139305.39, -116889.72, -101136.99, 187297.42
858, 93348.41, 123211.38, 187500.00, -79383.76, -139194.28, -116545.66, -100411.79, 187325.89
859, 92286.75, 121895.44, 187500.00, -77041.48, -137690.98, -116670.05, -101132.34, 187184.70
860, 92496.68, 122428.05, 187500.00, -75962.94, -137181.66, -116750.51, -100477.59, 185823.66
861, 92386.98, 121598.05, 187500.00, -80127.47, -139461.30, -117230.16, -101972.14, 187500.00
862, 93068.86, 121524.58, 187500.00, -79868.46, -139604.20, -116900.49, -101586.02, 187018.81
863, 92263.64, 123744.23, 187500.00, -79162.92, -138441.97, -117176.00, -101526.36, 186082.72
864, 92584.63, 122156.75, 187500.00, -79359.22, -138041.33, -117735.10, -103081.68, 187485.02
865, 92186.33, 120811.17, 187500.00, -81160.74, -139741.92, -117991.26, -103206.41, 187195.72
866, 92607.25, 123813.44, 187500.00, -80651.44, -139790.22, -117152.28, -101036.12, 186860.20
867, 92798.49, 123718.60, 187500.00, -77199.86, -138526.73, -116507.93, -100622.38, 186782.48
868, 92600.95, 123935.57, 187500.00, -76038.55, -137688.03, -116839.65, -101138.98, 186362.05
869, 92864.92, 123599.15, 187500.00, -79507.12, -139063.03, -117352.82, -102105.31, 186713.55
870, 93194.37, 125090.66, 187500.00, -79631.75, -139851.70, -116459.91, -101258.67, 187500.00
871, 93425.77, 125815.40, 187500.00, -78512.27, -139126.06, -116236.27, -100364.45, 187500.00
872, 93482.99, 126919.37, 187500.00, -75258.25, -137363.67, -116041.73, -99734.24, 187500.00
873, 93564.13, 124508.06, 187500.00, -76217.45, -137851.92, -115945.13, -99659.20, 187500.00
874, 93146.55, 124089.02, 187500.00, -79280.27, -139924.55, -116773.02, -101388.76, 187349.86
875, 92957.35, 122745.74, 187500.00, -81422.20, -139991.81, -117563.66, -102308.02, 187500.00
876, 92245.84, 123286.74, 187500.00, -78229.67, -137682.69, -116640.49, -100492.86, 187500.00
877, 92415.70, 123527.63, 187500.00, -77105.67, -137672.92, -115313.47, -99144.53, 187500.00
878, 93054.24, 123276.15, 187500.00, -81302.50, -140165.61, -117414.40, -102764.20, 187500.00
879, 92477.12, 122906.90, 187500.00, -80098.01, -140051.83, -117349.80, -102728.01, 186934.25
880, 92747.95, 122636.06, 187500.00, -78703.22, -138404.36, -117195.58, -102254.80, 186567.95
881, 93001.60, 121758.71, 187500.00, -79061.85, -138528.03, -117277.79, -103363.70, 186504.80
882, 92275.53, 124057.32, 187500.00, -81827.43, -140194.86, -117718.63, -103153.79, 186966.59
883, 92434.81, 125672.23, 187500.00, -80388.07, -139657.14, -117156.15, -101018.28, 187500.00
884, 92763.23, 122731.21, 187500.00, -77028.63, -137970.97, -116742.42, -100050.92, 187500.00
885, 93573.34, 124220.80, 187500.00, -74105.02, -137240.78, -115652.30, -99537.91, 186700.67
886, 93031.04, 124737.95, 187500.00, -77517.45, -138915.69, -115772.96, -99367.67, 186371.83
887, 92506.42, 126004.27, 187500.00, -79420.75, -139664.63, -116565.13, -100617.65, 186831.61
888, 92988.84, 123739.27, 187500.00, -77821.46, -138957.69, -117545.96, -102300.38, 185626.00
889, 93235.78, 122184.73, 187500.00, -76420.41, -137736.55, -116819.76, -101437.09, 185952.25
890, 92988.23, 123524.74, 187500.00, -79644.88, -139258.98, -116813.81, -101456.66, 186198.20
891, 92167.39, 123937.83, 187500.00, -80251.32, -140419.94, -117333.06, -102742.47, 185899.31
892, 92462.50, 123832.08, 187500.00, -77627.54, -139128.23, -117082.61, -101751.40, 186039.55
893, 92406.65, 121216.01, 187500.00, -75394.80, -137713.88, -116792.02, -101553.78, 186105.98
894, 92753.63, 122936.96, 187500.00, -77637.98, -138936.11, -116683.39, -101515.61, 186721.53
895, 92511.99, 124942.24, 187500.00, -78409.65, -139602.47, -116621.02, -100996.11, 187500.00
896, 93137.39, 125647.76, 187500.00, -76668.25, -138835.70, -116391.01, -100616.02, 187248.00
897, 94041.01, 124919.11, 187500.00, -71920.11, -136355.34, -115138.57, -97495.20, 187500.00
898, 94542.27, 125580.70, 187500.00, -73139.02, -137339.69, -115468.37, -98158.71, 187493.20
899, 93248.41, 125661.57, 187500.00, -78047.69, -139445.80, -116509.38, -100875.97, 187500.00
900, 93004.80, 124063.30, 187500.00, -80344.73, -139737.31, -117554.91, -102833.20, 186995.20
901, 93976.74, 124437.12, 187500.00, -75415.95, -137535.11, -116521.92, -100484.30, 187259.36
902, 93728.15, 124358.73, 187500.00, -76960.92, -137870.36, -116522.03, -100877.94, 187500.00
903, 93269.60, 127951.98, 187500.00, -78836.14, -139193.00, -116007.61, -99844.81, 187500.00
904, 92844.29, 126410.04, 187500.00, -75998.19, -138692.28, -115539.31, -99212.38, 187500.00
905, 93521.87, 124645.26, 187500.00, -76491.04, -137505.63, -116505.54, -100606.47, 187500.00
906, 93307.58, 123895.36, 187500.00, -75970.67, -137329.66, -116560.03, -100530.25, 186545.59
907, 93742.30, 125966.60, 187500.00, -77405.67, -138681.55, -116097.15, -100073.14, 186002.98
908, 93483.66, 126742.39, 187500.00, -77870.48, -139071.16, -116333.09, -100284.27, 186786.06
909, 93474.39, 126141.75, 187500.00, -73288.71, -136885.41, -115204.62, -97939.73, 187264.11
910, 93207.06, 125357.38, 187500.00, -73674.12, -136729.44, -115906.73, -99234.03, 187107.70
911, 93506.46, 123721.55, 187500.00, -77712.70, -138581.06, -116262.98, -100159.95, 187348.56
912, 93226.58, 124034.23, 187500.00, -78086.94, -139389.56, -116547.94, -100754.93, 186436.31
913, 93455.19, 123450.11, 187500.00, -78121.52, -138418.00, -116979.86, -100871.99, 187234.39
914, 93210.70, 124925.04, 187500.00, -74877.88, -136878.09, -116369.95, -100100.90, 186358.38
915, 92953.28, 124199.07, 187500.00, -78869.06, -138729.50, -117204.41, -102002.20, 187065.45
916, 92918.23, 123171.95, 187500.00, -81338.29, -140110.59, -117700.17, -103434.88, 187364.77
917, 93494.57, 124008.16, 187500.00, -77521.86, -138541.00, -116636.90, -100810.56, 186671.39
918, 94312.45, 122435.50, 187500.00, -74193.28, -137099.30, -116474.58, -100594.72, 186727.67
919, 93326.38, 122248.68, 187500.00, -76544.02, -138404.09, -117257.45, -102273.42, 187500.00
920, 93385.83, 124512.20, 187500.00, -78385.27, -139494.19, -116794.70, -101902.65, 186567.34
921, 93570.84, 124381.66, 187500.00, -78255.31, -138603.98, -116357.16, -101064.66, 187500.00
922, 93524.34, 122026.30, 187500.00, -78648.68, -138023.09, -117653.97, -103375.02, 186754.31
923, 92899.23, 122221.10, 187500.00, -76676.07, -138282.53, -117222.71, -102060.38, 186881.44
924, 92567.13, 125897.38, 187500.00, -76311.80, -139155.16, -116562.78, -100183.22, 186064.83
925, 93176.73, 126188.63, 187500.00, -77941.58, -139035.98, -116616.18, -101285.48, 186810.69
926, 93325.77, 121876.30, 187500.00, -78392.57, -138308.66, -117802.95, -103251.69, 187251.08
927, 93793.88, 123188.08, 187500.00, -78265.63, -137945.53, -117400.99, -102168.23, 186769.25
928, 93661.31, 125086.02, 187500.00, -79234.95, -139358.86, -117269.81, -101779.16, 187336.20
929, 93227.05, 126851.53, 187500.00, -76824.04, -138849.25, -116214.78, -99569.22, 187500.00
930, 93464.87, 124016.68, 187500.00, -73604.98, -136973.14, -115842.20, -98832.39, 187500.00
931, 92744.96, 124925.15, 187500.00, -73143.42, -136624.66, -115981.92, -99262.66, 186911.81
932, 91746.15, 125093.32, 187500.00, -74724.54, -138315.55, -116203.95, -99354.20, 186546.83
933, 92408.95, 125153.73, 187500.00, -76826.14, -139277.78, -117008.61, -100408.99, 187165.09
934, 93022.77, 124779.93, 187500.00, -73959.91, -137707.44, -116214.00, -100020.86, 186987.52
935, 93697.66, 125134.25, 187500.00, -71126.53, -136591.70, -115399.02, -98447.31, 186876.33
936, 93923.14, 125591.34, 187500.00, -76581.14, -138580.41, -115964.18, -99283.14, 187449.09
937, 93321.62, 126650.77, 187500.00, -78065.30, -139435.41, -116201.93, -99872.38, 187180.45
938, 93431.12, 125384.52, 187500.00, -76527.27, -138175.44, -116463.20, -99369.08, 186824.88
939, 93344.52, 123350.22, 187500.00, -76968.38, -137395.36, -116639.58, -100948.61, 187500.00
940, 92424.20, 123644.98, 187500.00, -79885.71, -139002.34, -117230.42, -102532.61, 187290.42
941, 93233.33, 125011.70, 187500.00, -79532.29, -139977.73, -117119.54, -101754.88, 186880.33
942, 93315.80, 125026.98, 187500.00, -78501.23, -138693.94, -116572.08, -100229.16, 187500.00
943, 93298.03, 124015.79, 187500.00, -76330.34, -137345.88, -116232.11, -99972.40, 186274.41
944, 93116.80, 125238.67, 187500.00, -78437.25, -138348.27, -116643.06, -100682.63, 186042.81
945, 93043.73, 124646.91, 187500.00, -79996.13, -139790.47, -117051.59, -101194.46, 185614.69
946, 92955.05, 125085.70, 187500.00, -77472.06, -139121.77, -116766.60, -100696.23, 185708.08
947, 93291.10, 123438.84, 187500.00, -73963.73, -137181.09, -116368.14, -99970.09, 185577.39
948, 93894.83, 125250.25, 187500.00, -77241.93, -137836.75, -116453.10, -100419.27, 187500.00
949, 92762.53, 125468.00, 187500.00, -80302.91, -139946.53, -117364.78, -102374.49, 187500.00
950, 93157.77, 125523.64, 187500.00, -77879.29, -139142.94, -116767.54, -100406.63, 187321.89
951, 93950.97, 125763.83, 187500.00, -71802.14, -136486.25, -115406.30, -97583.63, 187028.80
952, 94135.22, 127501.14, 187500.00, -70655.18, -136516.00, -114952.91, -96876.50, 185695.73
953, 93419.65, 127778.21, 187500.00, -76209.92, -138579.33, -115308.58, -97822.49, 186993.25
954, 93110.19, 127047.09, 187500.00, -76386.44, -138898.27, -115876.96, -98797.75, 187500.00
955, 93394.66, 126251.99, 187500.00, -77138.41, -137741.84, -116455.49, -99827.24, 187500.00
956, 93524.81, 126576.38, 187500.00, -74768.21, -137167.64, -115708.18, -98734.65, 187500.00
957, 93729.94, 127132.67, 187500.00, -76266.43, -138665.08, -115679.80, -98862.19, 187381.50
958, 92694.11, 124567.41, 187500.00, -77412.67, -139137.08, -115999.09, -99173.28, 187500.00
959, 92835.62, 124516.22, 187500.00, -78014.09, -138318.00, -116314.27, -100191.27, 187500.00
960, 93744.51, 124276.05, 187500.00, -71302.66, -136797.45, -115390.61, -98501.45, 187420.11
961, 93434.42, 127442.63, 187500.00, -73246.66, -138141.86, -115186.52, -97812.44, 186933.95
962, 92373.99, 125885.38, 187500.00, -76305.37, -139511.36, -116043.30, -99544.14, 186936.80
963, 93668.40, 126761.74, 187500.00, -75745.86, -138150.61, -115704.45, -98997.15, 186299.22
964, 94541.51, 124650.82, 187500.00, -77692.00, -137719.58, -116886.39, -101494.53, 187055.94
965, 93524.63, 126394.77, 187500.00, -79694.67, -139492.69, -117453.36, -102255.63, 187500.00
966, 92564.36, 127376.53, 187500.00, -77710.80, -139623.20, -116392.30, -99488.66, 186830.89
967, 92321.06, 124954.98, 187500.00, -79659.54, -139186.94, -116826.33, -100749.05, 187215.39
968, 93926.74, 126212.34, 187500.00, -74073.21, -137205.22, -115739.77, -99087.47, 187475.47
969, 92851.65, 126446.90, 187500.00, -76018.39, -138383.09, -116277.48, -100146.02, 186644.06
970, 90972.24, 126133.17, 187500.00, -78627.34, -139869.59, -116635.78, -100868.79, 186515.38
971, 91230.19, 127335.89, 187500.00, -75723.10, -138810.41, -115781.63, -98689.84, 187263.92
972, 93252.62, 126886.98, 187500.00, -74512.69, -137109.58, -115945.36, -98721.30, 186861.11
973, 93179.93, 126333.69, 187500.00, -74064.58, -137915.58, -115812.63, -98877.54, 187280.61
974, 91130.31, 126228.92, 187500.00, -76992.15, -139803.50, -116456.74, -99524.70, 187500.00
975, 90423.13, 125170.79, 187500.00, -78738.15, -140048.61, -117081.02, -101535.68, 187500.00
976, 91944.03, 125355.69, 187500.00, -77681.45, -138359.50, -117013.70, -101464.16, 186440.72
977, 92488.50, 125305.02, 187500.00, -77431.89, -138812.89, -117226.55, -101900.51, 186775.42
978, 91575.85, 125513.29, 187500.00, -75919.46, -139742.45, -116085.99, -99217.45, 186066.80
979, 90473.45, 124939.54, 187500.00, -79912.00, -140337.13, -116906.93, -101031.55, 185177.67
980, 91586.56, 125360.45, 187500.00, -78448.52, -138914.56, -116831.23, -101405.37, 186432.75
981, 92657.88, 126484.67, 187500.00, -74394.63, -137656.72, -116312.35, -99558.87, 187002.11
982, 90789.20, 126219.16, 187500.00, -75126.29, -139166.06, -115929.30, -99100.75, 186309.39
983, 90452.97, 126370.59, 187500.00, -76605.93, -140145.48, -116421.16, -99901.92, 186845.36
984, 91325.27, 125885.49, 187500.00, -78527.95, -139303.47, -117197.61, -101248.73, 186660.03
985, 92771.52, 127473.65, 187500.00, -74936.14, -137603.38, -116076.98, -99515.75, 187500.00
986, 90512.20, 126150.18, 187500.00, -74839.98, -138711.48, -115850.07, -98465.82, 186338.80
987, 89633.55, 126365.90, 187500.00, -77316.27, -139920.89, -115859.81, -99505.88, 186725.81
988, 90968.47, 127182.27, 187500.00, -79453.85, -139674.81, -117219.27, -101378.61, 186686.44
989, 93244.97, 126839.30, 187500.00, -76478.86, -137950.78, -116926.27, -100101.13, 187430.45
990, 91459.05, 126139.96, 187500.00, -77446.76, -139148.75, -116443.24, -100337.42, 186915.70
991, 90267.09, 126105.21, 187500.00, -79070.27, -140213.81, -116479.54, -99725.86, 186503.91
992, 90836.91, 125823.38, 187500.00, -76055.70, -138964.91, -115523.13, -97344.15, 186198.25
993, 91519.05, 126969.80, 187500.00, -75112.14, -138033.39, -115930.70, -99794.95, 183992.63
994, 90436.25, 125571.98, 187500.00, -77773.88, -139079.59, -116717.54, -101133.39, 184903.25
995, 89504.98, 125097.50, 187500.00, -77885.21, -140110.16, -116089.66, -99270.69, 186718.13
996, 89612.92, 122025.41, 187500.00, -80544.82, -140805.34, -117224.63, -102214.13, 186587.55
997, 90491.80, 123815.12, 187500.00, -78559.83, -138827.50, -117098.66, -101844.40, 185519.55
998, 90194.85, 125118.13, 187500.00, -77815.38, -138635.39, -116202.76, -99539.11, 184103.41
999, 88938.68, 124780.98, 187500.00, -77637.87, -140046.97, -115548.68, -98795.87, 184894.67
1000, 89080.10, 125183.91, 187500.00, -78538.87, -140377.64, -115842.31, -99806.26, 185720.86
1001, 89841.09, 126986.63, 187500.00, -76234.29, -138693.80, -115787.15, -99322.81, 187500.00
1002, 90162.64, 126222.89, 187500.00, -75316.03, -138128.14, -115217.90, -98393.76, 187280.59
1003, 89584.73, 125149.89, 187500.00, -78201.60, -140161.08, -116016.34, -99486.65, 186330.70
1004, 89820.37, 126066.77, 187500.00, -75657.41, -140175.14, -115564.13, -98757.36, 187352.16
1005, 89963.66, 126144.91, 187500.00, -74155.64, -138533.11, -115437.48, -98200.91, 186362.48
1006, 89802.63, 126185.18, 187500.00, -75255.44, -138310.02, -116096.99, -99188.52, 185752.06
1007, 88818.41, 124295.63, 187500.00, -78167.89, -140185.47, -116440.63, -100373.81, 185868.94
1008, 88284.67, 126072.51, 187500.00, -78523.09, -140935.33, -116829.41, -100747.27, 186197.80
1009, 89140.63, 124557.51, 187500.00, -79644.54, -140141.16, -117512.15, -101774.22, 186130.61
1010, 89889.03, 124315.62, 187500.00, -80096.27, -139188.28, -117385.84, -102110.45, 184715.77
1011, 88773.68, 127273.42, 187500.00, -78006.96, -139805.44, -116469.04, -99666.85, 185329.84
1012, 88075.10, 127690.35, 187500.00, -76565.36, -140230.33, -115742.07, -98065.08, 186029.11
1013, 88657.41, 126241.20, 187500.00, -77172.10, -139705.84, -115995.55, -99470.38, 187500.00
1014, 89681.03, 125059.86, 187500.00, -77625.26, -138818.97, -116749.46, -101026.71, 187017.02
1015, 89546.65, 125252.42, 187500.00, -76646.23, -139561.14, -116216.95, -100054.59, 185413.09
1016, 88230.52, 125582.69, 187500.00, -77430.04, -140751.13, -116146.41, -99695.52, 187091.09
1017, 88232.63, 124300.37, 187500.00, -77242.69, -140215.27, -116305.53, -100192.52, 186724.97
1018, 89222.84, 124587.28, 187500.00, -76601.93, -138644.05, -116817.27, -100756.99, 187500.00
1019, 88440.73, 123374.63, 187500.00, -76873.50, -139251.75, -116586.90, -100845.70, 187500.00
1020, 87407.68, 124926.24, 187500.00, -77561.71, -140831.97, -116460.52, -100721.30, 187500.00
1021, 87655.83, 126105.37, 187500.00, -76236.12, -140270.73, -116390.67, -100021.70, 185571.55
1022, 89030.35, 125623.82, 187500.00, -75091.27, -138106.55, -115889.34, -98766.32, 185632.19
1023, 89613.35, 126441.34, 187500.00, -74720.72, -138404.66, -116063.40, -99045.77, 187265.66
1024, 88278.05, 125659.67, 187500.00, -76302.77, -139871.83, -115689.34, -98806.91, 187026.61
1025, 88257.49, 125743.29, 187500.00, -78828.90, -140557.91, -116519.35, -100169.92, 186814.22
1026, 89581.07, 126072.51, 187500.00, -76464.78, -139012.92, -116933.75, -100313.59, 186688.22
1027, 89807.74, 123826.76, 187500.00, -78019.09, -139133.14, -117589.02, -101858.04, 187040.11
1028, 89293.95, 124255.34, 187500.00, -76691.88, -139804.03, -116614.57, -100070.30, 187500.00
1029, 88153.00, 126201.12, 187500.00, -74758.34, -139578.80, -115679.86, -97746.55, 187500.00
1030, 88927.02, 126363.57, 187500.00, -73439.02, -138188.97, -115195.79, -98004.23, 187095.67
1031, 89750.99, 124797.79, 187500.00, -72609.44, -137728.19, -115535.41, -98791.40, 186067.50
1032, 88781.91, 125871.41, 187500.00, -75388.45, -139345.73, -115988.80, -99122.79, 186528.61
1033, 88475.48, 127674.30, 187500.00, -77936.82, -140401.50, -116834.27, -100616.13, 187500.00
1034, 89156.52, 125385.55, 187500.00, -79497.87, -139840.48, -117410.49, -101988.15, 187500.00
1035, 89661.38, 124664.68, 187500.00, -79266.68, -138653.63, -117451.73, -101935.71, 187500.00
1036, 89573.07, 125174.59, 187500.00, -80557.43, -139876.72, -117594.24, -101385.70, 187474.73
1037, 89209.38, 125772.97, 187500.00, -82665.71, -141196.14, -118243.83, -102818.58, 187500.00
1038, 88600.86, 124514.26, 187500.00, -82862.38, -140291.69, -118034.51, -103430.37, 187000.30
1039, 89490.73, 125664.37, 187500.00, -75541.12, -137660.13, -116425.43, -99888.98, 186814.28
1040, 89767.71, 126332.41, 187500.00, -74247.33, -138400.00, -116004.23, -98876.05, 187301.91
1041, 89448.77, 126197.27, 187500.00, -76046.47, -139865.64, -116072.76, -100073.36, 187289.95
1042, 88502.94, 125320.62, 187500.00, -76526.91, -139436.17, -115946.34, -99874.90, 187500.00
1043, 89546.47, 126993.13, 187500.00, -74629.77, -137299.94, -115600.20, -98213.95, 187500.00
1044, 89408.12, 125466.06, 187500.00, -74329.45, -137695.44, -115561.95, -98562.72, 186616.19
1045, 88877.71, 124118.05, 187500.00, -79609.06, -140364.56, -117351.48, -101718.92, 186634.11
1046, 88913.07, 123500.05, 187500.00, -81229.73, -140976.27, -118221.77, -103202.23, 186770.08
1047, 89251.95, 123261.91, 187500.00, -78871.39, -138890.05, -117781.64, -102737.09, 186917.11
1048, 89143.45, 124694.55, 187500.00, -73570.18, -137791.03, -116509.41, -100739.60, 186832.09
1049, 88461.41, 124281.59, 187500.00, -79972.69, -140324.50, -117161.41, -102511.89, 186082.94
1050, 88776.86, 124403.08, 187500.00, -80172.58, -140649.83, -117662.24, -102936.95, 186143.94
1051, 89293.67, 122848.94, 187500.00, -79038.31, -139322.84, -118301.79, -103590.48, 186898.70
1052, 89433.20, 122823.93, 187500.00, -78109.04, -138365.86, -117782.16, -101780.59, 187314.00
1053, 101183.41, 147507.50, 187500.00, -65271.27, -136102.36, -110272.23, -90875.46, 0.00
1054, 104542.59, 147329.75, 187500.00, -58536.45, -131983.11, -110192.38, -90649.71, 0.00
1055, 105621.65, 147778.53, 187500.00, -55643.64, -131953.45, -109912.38, -90614.51, 0.00
1056, 100803.64, 147471.31, 187500.00, -66107.90, -136407.63, -110647.21, -91203.74, 0.00
1057, 100609.27, 147570.84, 187500.00, -69367.88, -137092.44, -110963.13, -91309.09, 0.00
1058, 103492.55, 148766.67, 187500.00, -59103.33, -132851.23, -110319.35, -90959.08, 0.00
1059, 104295.78, 149244.73, 187500.00, -56741.40, -132072.91, -110311.47, -90837.02, 0.00
1060, 101754.28, 149213.95, 187500.00, -64600.61, -136340.56, -110187.23, -90914.20, 0.00
1061, 99936.34, 149229.16, 187500.00, -68668.63, -137694.30, -110617.86, -91210.63, 0.00
1062, 102111.95, 147906.27, 187500.00, -64296.85, -134596.52, -110568.24, -91148.42, 0.00
1063, 104787.61, 148660.64, 187500.00, -57923.27, -132127.34, -110152.88, -90952.69, 0.00
1064, 100297.59, 147213.50, 187500.00, -65255.83, -136328.83, -110828.69, -90880.65, 0.00
1065, 98772.38, 146799.34, 187500.00, -69683.55, -138504.97, -111260.77, -91346.59, 0.00
1066, 101067.27, 147890.16, 187500.00, -63128.72, -135668.47, -110388.87, -90975.55, 0.00
1067, 103382.24, 147971.25, 187500.00, -58733.36, -132606.56, -110292.38, -90866.09, 0.00
1068, 100871.81, 148009.20, 187500.00, -63064.02, -135903.58, -110402.46, -90851.68, 0.00
1069, 97666.81, 147984.09, 187500.00, -68498.35, -138838.89, -111076.30, -91041.24, 0.00
1070, 98640.75, 147558.44, 187500.00, -65406.70, -137055.11, -110943.57, -91268.77, 0.00
1071, 101617.58, 146309.23, 187500.00, -57332.94, -133178.94, -110429.73, -91122.67, 0.00
1072, 99860.39, 146350.67, 187500.00, -65215.21, -135933.06, -110488.34, -91163.09, 0.00
1073, 96763.20, 148417.25, 187500.00, -70266.30, -139450.06, -110788.92, -91190.63, 0.00
1074, 97955.04, 148390.14, 187500.00, -67722.85, -138426.05, -110725.82, -91387.12, 0.00
1075, 100701.91, 146830.73, 187500.00, -61009.17, -134232.33, -110513.48, -91349.07, 0.00
1076, 100821.85, 147806.41, 187500.00, -63476.18, -135480.20, -110705.21, -90765.55, 0.00
1077, 96704.17, 147551.48, 187500.00, -71612.35, -139598.69, -111451.23, -91223.32, 0.00
1078, 96503.74, 147922.05, 187500.00, -70749.23, -139394.58, -111053.19, -91401.33, 0.00
1079, 100127.70, 147648.42, 187500.00, -64796.83, -135116.11, -110796.34, -91079.55, 0.00
1080, 99630.23, 147292.61, 187500.00, -64625.21, -135340.28, -110938.52, -91190.24, 0.00
1081, 95770.77, 147607.42, 187500.00, -70176.02, -139734.08, -110922.95, -91501.60, 0.00
1082, 96069.60, 147420.03, 187500.00, -70008.99, -140273.42, -110349.35, -91292.97, 0.00
1083, 99275.09, 147844.30, 187500.00, -64207.84, -136517.56, -110483.80, -91294.84, 0.00
1084, 101217.28, 148312.61, 187500.00, -62217.80, -135115.11, -110685.55, -91198.34, 0.00
1085, 96893.96, 147628.03, 187500.00, -70768.41, -139637.09, -110849.25, -91539.29, 0.00
1086, 96369.63, 148260.66, 187500.00, -73523.76, -141317.78, -111147.89, -91584.91, 0.00
1087, 98850.88, 148738.84, 187500.00, -67391.78, -137844.97, -110872.70, -91429.83, 0.00
1088, 100403.02, 146365.70, 187500.00, -65005.73, -135397.16, -110629.11, -91357.50, 0.00
1089, 95663.01, 146802.08, 187500.00, -71483.55, -139636.86, -111611.40, -91505.73, 0.00
1090, 93993.64, 147574.75, 187500.00, -74507.86, -142022.13, -111944.51, -91693.78, 0.00
1091, 95649.84, 147091.84, 187500.00, -71304.95, -139470.30, -111433.14, -91433.74, 0.00
1092, 99317.67, 147749.55, 187500.00, -65115.08, -135771.84, -110467.08, -91168.54, 0.00
1093, 96697.55, 147701.58, 187500.00, -71117.46, -139394.42, -111416.27, -91621.34, 0.00
1094, 92867.92, 147408.88, 187500.00, -75543.95, -142615.59, -111935.03, -92032.34, 0.00
1095, 94192.91, 149007.31, 187500.00, -71061.80, -140898.64, -110892.14, -91463.42, 0.00
1096, 97058.70, 148636.17, 187500.00, -67220.68, -136879.55, -110632.81, -91267.55, 0.00
1097, 95961.16, 146777.70, 187500.00, -70701.56, -139296.83, -110897.88, -91445.38, 0.00
1098, 92587.27, 146680.66, 187500.00, -77601.59, -143230.11, -112280.38, -91902.75, 0.00
1099, 93288.11, 147377.41, 187500.00, -74610.12, -142235.61, -111716.56, -91861.27, 0.00
1100, 96006.13, 146792.55, 187500.00, -67793.46, -137601.27, -110731.99, -91198.16, 0.00
1101, 95006.22, 145628.34, 187500.00, -68764.58, -138863.03, -111124.24, -91507.68, 0.00
1102, 91034.09, 144814.06, 187500.00, -75152.75, -143145.75, -111346.73, -91638.98, 0.00
1103, 90381.76, 145277.69, 187500.00, -76471.77, -143214.02, -111867.82, -91975.59, 0.00
1104, 94059.63, 147228.52, 187500.00, -70311.48, -138912.33, -111335.45, -91656.88, 0.00
1105, 94072.48, 146824.09, 187500.00, -70739.89, -138783.83, -111642.04, -91730.38, 0.00
1106, 89202.59, 143180.11, 187500.00, -77604.83, -143419.73, -112210.60, -92011.98, 0.00
1107, 88061.13, 142276.94, 187500.00, -78195.98, -144419.44, -112081.63, -92046.23, 0.00
1108, 92055.61, 145810.48, 187500.00, -70954.47, -140277.83, -111255.89, -91696.15, 0.00
1109, 94834.16, 147874.75, 187500.00, -68712.48, -138630.75, -111578.72, -91499.91, 0.00
1110, 90444.84, 144885.41, 187500.00, -76646.84, -143341.11, -112210.78, -92122.73, 0.00
1111, 88617.20, 140885.61, 187500.00, -78842.16, -145188.33, -112342.39, -91989.67, 0.00
1112, 92256.91, 143469.83, 187500.00, -75250.23, -142030.48, -111886.15, -91880.71, 0.00
1113, 94977.77, 145592.75, 187500.00, -69794.26, -139006.14, -111409.27, -91772.88, 0.00
1114, 91681.80, 144560.03, 187500.00, -74077.12, -142840.03, -111561.27, -91919.65, 0.00
1115, 89403.47, 142492.95, 187500.00, -78645.23, -145510.05, -111845.38, -91971.86, 0.00
1116, 90700.83, 145180.14, 187500.00, -75920.29, -142975.25, -111587.91, -91808.80, 0.00
1117, 93245.02, 146849.33, 187500.00, -70839.29, -139243.23, -111679.50, -91736.45, 0.00
1118, 90450.65, 144014.70, 187500.00, -74429.32, -142553.30, -112157.16, -91998.28, 0.00
1119, 87349.25, 139292.42, 187500.00, -78928.50, -146140.89, -112235.86, -92470.86, 0.00
1120, 88381.56, 141535.69, 187500.00, -77280.46, -144512.58, -111937.38, -92007.35, 0.00
1121, 92045.04, 147012.53, 187500.00, -71791.74, -139889.03, -111334.28, -91753.41, 0.00
1122, 90899.18, 144472.91, 187500.00, -74965.73, -142030.56, -111530.80, -91927.96, 0.00
1123, 87616.91, 139986.28, 187500.00, -80605.62, -146158.08, -112237.85, -92347.46, 0.00
1124, 88597.75, 141772.70, 187500.00, -78080.05, -145562.11, -111958.59, -92293.34, 0.00
1125, 92631.28, 147389.95, 187500.00, -70884.13, -140590.50, -111819.45, -91925.59, 0.00
1126, 92094.28, 146076.48, 187500.00, -72895.23, -141402.78, -112109.20, -91753.80, 0.00
1127, 88697.46, 141351.89, 187500.00, -78732.19, -145847.91, -112302.98, -92090.10, 0.00
1128, 88167.50, 143383.64, 187500.00, -77800.70, -146077.27, -111891.58, -91959.39, 0.00
1129, 91971.08, 147598.28, 187500.00, -71897.31, -141598.83, -111540.50, -91829.32, 0.00
1130, 92737.98, 148543.08, 187500.00, -69969.98, -140740.53, -110987.29, -91646.91, 0.00
1131, 88281.41, 141752.84, 187500.00, -77709.97, -145341.56, -111734.04, -91940.12, 0.00
1132, 87376.50, 142317.84, 187500.00, -77810.58, -146679.08, -112076.70, -92067.88, 0.00
1133, 90346.51, 145279.25, 187500.00, -74344.47, -142743.28, -111717.81, -91912.09, 0.00
1134, 92138.76, 147036.28, 187500.00, -71470.46, -140589.14, -111460.99, -92041.95, 0.00
1135, 89481.48, 141728.23, 187500.00, -77434.42, -144896.34, -111738.58, -92394.66, 0.00
1136, 87673.46, 140863.77, 187500.00, -78785.43, -146914.34, -111859.57, -92243.19, 0.00
1137, 89457.78, 143379.31, 187500.00, -73837.69, -143808.50, -111920.12, -91867.59, 0.00
1138, 93337.82, 145659.30, 187500.00, -71902.14, -140520.45, -112032.80, -91524.76, 0.00
1139, 89691.36, 141418.31, 187500.00, -77505.88, -144371.88, -112189.39, -92095.51, 0.00
1140, 87493.17, 138972.48, 187500.00, -80343.59, -147150.69, -112243.62, -92327.03, 0.00
1141, 89669.63, 141156.36, 187500.00, -77275.30, -145149.67, -112021.33, -92066.25, 0.00
1142, 92708.95, 148032.30, 187500.00, -70729.57, -140711.53, -111088.77, -91813.50, 0.00
1143, 89330.29, 143070.09, 187500.00, -74943.25, -143881.19, -111613.56, -92312.74, 0.00
1144, 86475.68, 138941.81, 187500.00, -81645.76, -147402.13, -112535.13, -92687.77, 0.00
1145, 87219.03, 141525.61, 187500.00, -80064.08, -146352.67, -112375.49, -92386.41, 0.00
1146, 91282.02, 143938.59, 187500.00, -73617.01, -141769.42, -111825.98, -91929.28, 0.00
1147, 91129.91, 142862.02, 187500.00, -75385.32, -143187.19, -112093.26, -92059.59, 0.00
1148, 87726.99, 139056.81, 187500.00, -79516.93, -147031.16, -112592.55, -92406.84, 0.00
1149, 87274.30, 138105.14, 187500.00, -77349.30, -146728.38, -112305.35, -92104.41, 0.00
1150, 89557.91, 142080.89, 187500.00, -73816.95, -142404.33, -112033.06, -91963.59, 0.00
1151, 90277.22, 141246.13, 187500.00, -75554.99, -142744.36, -111917.91, -92165.70, 0.00
1152, 86332.25, 136503.66, 187500.00, -78889.61, -146820.22, -112241.88, -92396.05, 0.00
1153, 85740.35, 135180.95, 187500.00, -79586.94, -147438.94, -112475.63, -92516.75, 0.00
1154, 88926.19, 139969.03, 187500.00, -75115.65, -143610.05, -111830.63, -91930.51, 0.00
1155, 91302.67, 141779.33, 187500.00, -75276.11, -142488.09, -112170.20, -92090.34, 0.00
1156, 86947.66, 137301.75, 187500.00, -78565.15, -146571.31, -112530.95, -92456.36, 0.00
1157, 86143.15, 135519.61, 187500.00, -79139.34, -147521.64, -112361.08, -92224.14, 0.00
1158, 88028.97, 140140.00, 187500.00, -78759.63, -144781.09, -111906.40, -92054.12, 0.00
1159, 89588.45, 141999.36, 187500.00, -74594.23, -142496.17, -111976.00, -92249.13, 0.00
1160, 86164.66, 136193.95, 187500.00, -76991.50, -146172.45, -112114.71, -92340.09, 0.00
1161, 85317.59, 132450.48, 187500.00, -78889.83, -147956.50, -112619.23, -92693.17, 0.00
1162, 86807.83, 137716.78, 187500.00, -77834.38, -146131.88, -112269.86, -92542.39, 0.00
1163, 89487.80, 140658.50, 187500.00, -74413.36, -142959.92, -112273.88, -92465.03, 0.00
1164, 86719.70, 134739.06, 187500.00, -78620.90, -146121.48, -112498.43, -92683.88, 0.00
1165, 85149.39, 132644.92, 187500.00, -80765.79, -147816.23, -112342.08, -92437.02, 0.00
1166, 85421.37, 134880.44, 187500.00, -78474.52, -146889.72, -112119.79, -92320.66, 0.00
1167, 87846.02, 137592.38, 187500.00, -76954.53, -143687.27, -112320.24, -92260.55, 0.00
1168, 86926.09, 135726.30, 187500.00, -77381.78, -145763.36, -112568.86, -92344.93, 0.00
1169, 84779.31, 134165.97, 187500.00, -80789.44, -147976.45, -112913.23, -92690.71, 0.00
1170, 84142.94, 133997.70, 187500.00, -80490.59, -147746.56, -112827.67, -92960.16, 0.00
1171, 86162.38, 137151.08, 187500.00, -76968.72, -144611.42, -112404.77, -92442.61, 0.00
1172, 85042.87, 134734.03, 187500.00, -79338.77, -145726.11, -112629.92, -92691.83, 0.00
1173, 84106.51, 131970.42, 187500.00, -81341.44, -148126.86, -112912.70, -92893.00, 0.00
1174, 84954.10, 132484.44, 187500.00, -80867.87, -148084.06, -112858.96, -92830.62, 0.00
1175, 87603.66, 136617.44, 187500.00, -76034.69, -145477.86, -112035.27, -92299.72, 0.00
1176, 86375.48, 136311.02, 187500.00, -76983.63, -145535.80, -112519.04, -92363.93, 0.00
1177, 84966.45, 132581.11, 187500.00, -81653.27, -148024.84, -112974.63, -92720.24, 0.00
1178, 85229.23, 132156.41, 187500.00, -80599.77, -148116.00, -112692.51, -92621.27, 0.00
1179, 85344.73, 135586.55, 187500.00, -78316.73, -146523.88, -112180.32, -92450.50, 0.00
1180, 85214.23, 136771.58, 187500.00, -77247.52, -145478.64, -111903.45, -92299.36, 0.00
1181, 84148.48, 133228.59, 187500.00, -80575.27, -147841.61, -112419.15, -92785.48, 0.00
1182, 84417.53, 130149.76, 187500.00, -80197.19, -148252.91, -112726.17, -92754.30, 0.00
1183, 85504.12, 133338.64, 187500.00, -78142.86, -147241.98, -112275.29, -92748.54, 0.00
1184, 85871.71, 136004.19, 187500.00, -77115.33, -145757.89, -112440.47, -92651.82, 0.00
1185, 85013.67, 133800.72, 187500.00, -79679.36, -147710.42, -112618.91, -92498.87, 0.00
1186, 84569.48, 130941.79, 187500.00, -80630.70, -148279.41, -113074.90, -92731.66, 0.00
1187, 83878.74, 132707.17, 187500.00, -79457.90, -147743.17, -112807.22, -92594.52, 0.00
1188, 84145.13, 133358.64, 187500.00, -78503.55, -146274.38, -112400.66, -92278.08, 0.00
1189, 84955.20, 130958.11, 187500.00, -80838.01, -147731.77, -112902.52, -92860.34, 0.00
1190, 84577.99, 126977.41, 187500.00, -81699.83, -148391.97, -113175.30, -92898.85, 0.00
1191, 84348.35, 129207.23, 187500.00, -82713.16, -148279.48, -113341.55, -92982.92, 0.00
1192, 84879.36, 132454.80, 187500.00, -80957.44, -147077.48, -112991.66, -92803.26, 0.00
1193, 85304.16, 133404.34, 187500.00, -79449.05, -147502.00, -112621.77, -92529.91, 0.00
1194, 84423.05, 128268.95, 187500.00, -81152.38, -148338.64, -112814.52, -92641.52, 0.00
1195, 84149.94, 130191.76, 187500.00, -80400.59, -148276.69, -112724.09, -92696.97, 0.00
1196, 84422.38, 133425.52, 187500.00, -78550.38, -147555.97, -112815.42, -92784.41, 0.00
1197, 84421.04, 129905.54, 187500.00, -80484.83, -147716.27, -112866.09, -92815.05, 0.00
1198, 83467.96, 125631.24, 187500.00, -80558.30, -148554.36, -113535.05, -93028.49, 0.00
1199, 82654.83, 127121.92, 187500.00, -78796.96, -148558.45, -113406.51, -93020.88, 0.00
1200, 84675.49, 132130.64, 187500.00, -78709.01, -147884.91, -112680.08, -92530.27, 0.00
1201, 84171.19, 132583.86, 187500.00, -80294.10, -147853.92, -112768.68, -92779.38, 0.00
1202, 82917.59, 126811.59, 187500.00, -81319.04, -148588.05, -113200.49, -93083.03, 0.00
1203, 82392.69, 126779.80, 187500.00, -82713.27, -148745.44, -113317.82, -93327.27, 0.00
1204, 84319.54, 131196.59, 187500.00, -83325.11, -148363.88, -112957.09, -93100.53, 0.00
1205, 84539.88, 132925.16, 187500.00, -79586.76, -148100.67, -112859.41, -92741.88, 0.00
1206, 82385.09, 126066.54, 187500.00, -80505.30, -148524.92, -113048.93, -92905.73, 0.00
1207, 81178.25, 124571.59, 187500.00, -82429.81, -148708.59, -113326.73, -92972.55, 0.00
1208, 83607.28, 127666.41, 187500.00, -80708.81, -148449.64, -113020.70, -92855.06, 0.00
1209, 85220.25, 131231.09, 187500.00, -80025.73, -148199.14, -112909.43, -92793.42, 0.00
1210, 82129.27, 127318.52, 187500.00, -80101.81, -148558.98, -113209.32, -92875.48, 0.00
1211, 81702.33, 124043.44, 187500.00, -80547.30, -148724.41, -113310.13, -93077.20, 0.00
1212, 82486.70, 125080.00, 187500.00, -81541.10, -148661.27, -113614.56, -93375.82, 0.00
1213, 85259.14, 130187.82, 187500.00, -81400.67, -148366.47, -113266.92, -93024.70, 0.00
1214, 83698.20, 127412.78, 187500.00, -82078.66, -148558.55, -113192.38, -92967.88, 0.00
1215, 82034.21, 124730.80, 187500.00, -80215.87, -148769.42, -113283.46, -93243.88, 0.00
1216, 82145.95, 124195.99, 187500.00, -80201.56, -148798.78, -113460.49, -93297.81, 0.00
1217, 84549.45, 128694.59, 187500.00, -80128.03, -148449.59, -113090.50, -92976.39, 0.00
1218, 84274.52, 126787.16, 187500.00, -78227.98, -148409.03, -112833.44, -92766.69, 0.00
1219, 82632.05, 122153.53, 187500.00, -80459.52, -148830.03, -113173.18, -93087.23, 0.00
1220, 82063.82, 123445.75, 187500.00, -80960.34, -148721.89, -113334.09, -93104.29, 0.00
1221, 84375.55, 130294.95, 187500.00, -79999.80, -148351.11, -112782.61, -92847.83, 0.00
1222, 83731.29, 128922.87, 187500.00, -81265.15, -148382.25, -112907.84, -92767.72, 0.00
1223, 80037.59, 124000.73, 187500.00, -80792.34, -148831.97, -113659.04, -93082.98, 0.00
1224, 79494.85, 121683.56, 187500.00, -80384.45, -148929.25, -113633.47, -93316.18, 0.00
1225, 81055.36, 124559.59, 187500.00, -81213.81, -148737.00, -113487.78, -93464.30, 0.00
1226, 81653.94, 124344.34, 187500.00, -82386.18, -148712.72, -113655.06, -93320.70, 0.00
1227, 80003.17, 120062.08, 187500.00, -82571.27, -148937.02, -113645.79, -93318.35, 0.00
1228, 80030.75, 120793.13, 187500.00, -80965.23, -149040.78, -113793.71, -93357.35, 0.00
1229, 81363.09, 124316.04, 187500.00, -79663.78, -148700.89, -113215.88, -93102.37, 0.00
1230, 82779.66, 126192.11, 187500.00, -78585.42, -148512.67, -112780.44, -93014.95, 0.00
1231, 80662.86, 122968.12, 187500.00, -81556.39, -148793.23, -113239.34, -93211.53, 0.00
1232, 80152.44, 122984.52, 187500.00, -80916.93, -148994.36, -113446.92, -93279.28, 0.00
1233, 80427.70, 125814.37, 187500.00, -82423.38, -148854.39, -113538.41, -93313.41, 0.00
1234, 81932.40, 127199.46, 187500.00, -82071.89, -148581.42, -113184.89, -93060.68, 0.00
1235, 80822.38, 123931.79, 187500.00, -79939.36, -148886.78, -113568.92, -93231.20, 0.00
1236, 78369.66, 121847.89, 187500.00, -80369.36, -149132.95, -113706.43, -93379.17, 0.00
1237, 79185.37, 122551.95, 187500.00, -80158.49, -149008.13, -113437.16, -93375.82, 0.00
1238, 80248.70, 123971.55, 187500.00, -80155.88, -148697.13, -113347.46, -93151.20, 0.00
1239, 79871.36, 124252.43, 187500.00, -80775.45, -148932.81, -113480.48, -93319.52, 0.00
1240, 77448.88, 124560.10, 187500.00, -80319.83, -149161.48, -113638.30, -93429.73, 0.00
1241, 76539.55, 123254.13, 187500.00, -81213.74, -149199.05, -113835.20, -93760.18, 0.00
1242, 79606.61, 126324.52, 187500.00, -80361.54, -148826.88, -113397.98, -93413.05, 0.00
1243, 79076.47, 123943.95, 187500.00, -80094.84, -148936.98, -113488.48, -93201.09, 0.00
1244, 74880.80, 121045.29, 187500.00, -81896.99, -149448.27, -114091.81, -93850.63, 0.00
1245, 75698.78, 121968.16, 187500.00, -81228.45, -149275.83, -113946.30, -93628.66, 0.00
1246, 78852.39, 121625.52, 187500.00, -79907.44, -148841.88, -113414.63, -93157.27, 0.00
1247, 78244.78, 122916.91, 187500.00, -81106.56, -148973.83, -113724.82, -93428.77, 0.00
1248, 75666.38, 124202.78, 187500.00, -82193.69, -149444.66, -114446.94, -93897.06, 0.00
1249, 75236.62, 125010.82, 187500.00, -82278.34, -149512.92, -114403.06, -93776.12, 0.00
1250, 77109.47, 123365.04, 187500.00, -81226.48, -149010.64, -113871.70, -93325.39, 0.00
1251, 77756.04, 121132.73, 187500.00, -82317.41, -149013.05, -114096.84, -93512.74, 0.00
1252, 74416.71, 121794.80, 187500.00, -82823.36, -149456.30, -114440.16, -93685.68, 0.00
1253, 73981.68, 121908.66, 187500.00, -82078.60, -149526.17, -114409.50, -93736.35, 0.00
1254, 75939.24, 122164.57, 187500.00, -82551.27, -149376.50, -114249.33, -93904.75, 0.00
1255, 77478.50, 120727.94, 187500.00, -82468.21, -149209.02, -113894.30, -93881.37, 0.00
1256, 75975.45, 121896.51, 187500.00, -81024.34, -149310.86, -113713.40, -93681.45, 0.00
1257, 75325.89, 122285.27, 187500.00, -80672.78, -149479.39, -114020.47, -93662.50, 0.00
1258, 76369.63, 123429.23, 187500.00, -80858.82, -149315.91, -113831.91, -93571.93, 0.00
1259, 78449.99, 123121.67, 187500.00, -80324.03, -148995.98, -113701.33, -93454.83, 0.00
1260, 76589.91, 124884.58, 187500.00, -81729.95, -149346.45, -114040.09, -93734.02, 0.00
1261, 75333.18, 121347.98, 187500.00, -82764.08, -149795.53, -114614.84, -94273.48, 0.00
1262, 77740.82, 123254.17, 187500.00, -79421.83, -149402.66, -114000.60, -93621.30, 0.00
1263, 77472.71, 121615.08, 187500.00, -80286.95, -149152.77, -113785.84, -93344.21, 0.00
1264, 74410.41, 121660.79, 187500.00, -83383.76, -149493.05, -114344.77, -93807.45, 0.00
1265, 75288.90, 118016.89, 187500.00, -83488.61, -149815.63, -114696.30, -94036.40, 0.00
1266, 74768.05, 118495.11, 187500.00, -83873.48, -149820.09, -114849.36, -94262.66, 0.00
1267, 76424.70, 122413.64, 187500.00, -81456.48, -149253.56, -114041.77, -93797.13, 0.00
1268, 76280.16, 121948.86, 187500.00, -81880.61, -149378.09, -114033.32, -93741.07, 0.00
1269, 75364.91, 121708.22, 187500.00, -83746.95, -149875.92, -114623.12, -94405.80, 0.00
1270, 77589.07, 122288.63, 187500.00, -80576.41, -149671.09, -114010.37, -94037.59, 0.00
1271, 79046.18, 123540.59, 187500.00, -79836.45, -149238.50, -113585.44, -93462.85, 0.00
1272, 78322.95, 123072.52, 187500.00, -80078.97, -149192.06, -113690.22, -93522.16, 0.00
1273, 76663.28, 119565.76, 187500.00, -83065.77, -149734.83, -114810.13, -94134.68, 0.00
1274, 76588.95, 118930.07, 187500.00, -82949.42, -149831.61, -114840.15, -94042.86, 0.00
1275, 75622.97, 121369.14, 187500.00, -82812.63, -149476.23, -114498.66, -93925.13, 0.00
1276, 75672.92, 120999.73, 187500.00, -82275.63, -149419.55, -114243.05, -93614.34, 0.00
1277, 75475.87, 118535.30, 187500.00, -83329.49, -149809.81, -114539.48, -94098.38, 0.00
1278, 75863.78, 118684.32, 187500.00, -81913.11, -149814.11, -114706.40, -93994.73, 0.00
1279, 76024.67, 120922.73, 187500.00, -81133.12, -149596.36, -114374.30, -93711.88, 0.00
1280, 76801.28, 122681.10, 187500.00, -82485.06, -149334.81, -113777.93, -93603.47, 0.00
1281, 76356.24, 121475.89, 187500.00, -82228.80, -149692.84, -114230.24, -93889.70, 0.00
1282, 75648.54, 118718.96, 187500.00, -82772.84, -150013.92, -114909.66, -94296.93, 0.00
1283, 78415.70, 121455.48, 187500.00, -80935.33, -149646.84, -114374.97, -94048.34, 0.00
1284, 76501.16, 121310.05, 187500.00, -82401.52, -149411.58, -114119.06, -93726.25, 0.00
1285, 75556.80, 120997.55, 187500.00, -82997.97, -149816.11, -114616.73, -94400.31, 0.00
1286, 76381.36, 117874.67, 187500.00, -83546.44, -150073.34, -114762.79, -94333.45, 0.00
1287, 77298.45, 121049.24, 187500.00, -83691.08, -149864.84, -114617.44, -94144.09, 0.00
1288, 75633.14, 121930.57, 187500.00, -81699.02, -149503.70, -114372.51, -93852.29, 0.00
1289, 75989.58, 119395.28, 187500.00, -82239.73, -149556.77, -114104.20, -93725.82, 0.00
1290, 76796.12, 117884.55, 187500.00, -83875.73, -149898.03, -114312.16, -93871.38, 0.00
1291, 76730.50, 119323.63, 187500.00, -81936.80, -149877.30, -114395.40, -93873.52, 0.00
1292, 75925.48, 123072.73, 187500.00, -81243.63, -149483.30, -114034.17, -93775.65, 0.00
1293, 75880.70, 121378.08, 187500.00, -82305.09, -149558.56, -114282.92, -93760.24, 0.00
