%OpenBCI Raw EEG Data
%
%Sample Rate = 250.0 Hz
%First Column = SampleIndex
%Other Columns = EEG data in microvolts
52895, -187500.02, -187500.02, -187500.02, -187500.02, 109334.59, 187500.00, -187500.02, 187500.00
52896, -187500.02, -187500.02, -187500.02, -187500.02, 109087.44, 187500.00, -187500.02, 187500.00
52897, -187500.02, -187500.02, -187500.02, -187500.02, 108850.96, 187500.00, -187500.02, 187500.00
52895, -187500.02, -187500.02, -187500.02, -187500.02, 109334.59, 187500.00, -187500.02, 187500.00
52896, -187500.02, -187500.02, -187500.02, -187500.02, 109087.44, 187500.00, -187500.02, 187500.00
52897, -187500.02, -187500.02, -187500.02, -187500.02, 108850.96, 187500.00, -187500.02, 187500.00
52898, -187500.02, -187500.02, -187500.02, -187500.02, 108616.64, 187500.00, -187500.02, 187500.00
52899, -187500.02, -187500.02, -187500.02, -187500.02, 108376.32, 187500.00, -187500.02, 187500.00
52900, -187500.02, -187500.02, -187500.02, -187500.02, 108127.55, 187500.00, -187500.02, 187500.00
52901, -187500.02, -187500.02, -187500.02, -187500.02, 107884.78, 187500.00, -187500.02, 187500.00
52902, -187500.02, -187500.02, -187500.02, -187500.02, 107650.49, 187500.00, -187500.02, 187500.00
52903, -187500.02, -187500.02, -187500.02, -187500.02, 107410.68, 187500.00, -187500.02, 187500.00
1, -187500.02, -187500.02, -187500.02, -187500.02, 90736.19, 187500.00, -187500.02, 187500.00
2, -187500.02, -187500.02, -187500.02, -187500.02, 90587.21, 187500.00, -187500.02, 187500.00
3, -187500.02, -187500.02, -187500.02, -187500.02, 90419.91, 187500.00, -187500.02, 187500.00
4, -187500.02, -187500.02, -187500.02, -187500.02, 90268.03, 187500.00, -187500.02, 187500.00
5, -187500.02, -187500.02, -187500.02, -187500.02, 90115.97, 187500.00, -187500.02, 187500.00
6, -187500.02, -187500.02, -187500.02, -187500.02, 89973.66, 187500.00, -187500.02, 187500.00
7, -187500.02, -187500.02, -187500.02, -187500.02, 89836.48, 187500.00, -187500.02, 187500.00
8, -187500.02, -187500.02, -187500.02, -187500.02, 89694.15, 187500.00, -187500.02, 187500.00
9, -187500.02, -187500.02, -187500.02, -187500.02, 89544.35, 187500.00, -187500.02, 187500.00
10, -187500.02, -187500.02, -187500.02, -187500.02, 89399.38, 187500.00, -187500.02, 187500.00
11, -187500.02, -187500.02, -187500.02, -187500.02, 89266.77, 187500.00, -187500.02, 187500.00
12, -187500.02, -187500.02, -187500.02, -187500.02, 89127.16, 187500.00, -187500.02, 187500.00
13, -187500.02, -187500.02, -187500.02, -187500.02, 88973.69, 187500.00, -187500.02, 187500.00
14, -187500.02, -187500.02, -187500.02, -187500.02, 88805.11, 187500.00, -187500.02, 187500.00
15, -187500.02, -187500.02, -187500.02, -187500.02, 88639.62, 187500.00, -187500.02, 187500.00
16, -187500.02, -187500.02, -187500.02, -187500.02, 88474.82, 187500.00, -187500.02, 187500.00
17, -187500.02, -187500.02, -187500.02, -187500.02, 88301.37, 187500.00, -187500.02, 187500.00
18, -187500.02, -187500.02, -187500.02, -187500.02, 88124.70, 187500.00, -187500.02, 187500.00
19, -187500.02, -187461.89, -187461.38, -187500.02, 87965.82, 187500.00, -187500.02, 187500.00
20, -187500.02, -187456.75, -187358.06, -187500.02, 87823.76, 187500.00, -187500.02, 187500.00
21, -187500.02, -187500.02, -187368.56, -187500.02, 87682.80, 187500.00, -187500.02, 187500.00
22, -187500.02, -187500.02, -187382.16, -187500.02, 87538.16, 187500.00, -187500.02, 187500.00
23, -187500.02, -187444.50, -187391.70, -187500.02, 87406.00, 187500.00, -187500.02, 187500.00
24, -187500.02, -187474.48, -187405.05, -187500.02, 87276.61, 187500.00, -187500.02, 187500.00
25, -187500.02, -187500.02, -187417.73, -187500.02, 87137.22, 187500.00, -187500.02, 187500.00
26, -187500.02, -187495.80, -187433.39, -187500.02, 86990.10, 187500.00, -187500.02, 187500.00
27, -187500.02, -187442.77, -187446.45, -187500.02, 86854.88, 187500.00, -187500.02, 187500.00
28, -187500.02, -187433.70, -187458.47, -187500.02, 86724.63, 187500.00, -187500.02, 187500.00
29, -187500.02, -187500.02, -187469.97, -187500.02, 86585.09, 187500.00, -187500.02, 187500.00
30, -187500.02, -187500.02, -187480.91, -187500.02, 86438.91, 187500.00, -187500.02, 187500.00
31, -187500.02, -187461.42, -187496.91, -187500.02, 86303.59, 187500.00, -187500.02, 187500.00
32, -187500.02, -187483.78, -187500.02, -187500.02, 86174.96, 187500.00, -187500.02, 187500.00
33, -187500.02, -187475.42, -187500.02, -187500.02, 86039.05, 187500.00, -187500.02, 187500.00
34, -187500.02, -187447.83, -187500.02, -187500.02, 85897.82, 187500.00, -187500.02, 187500.00
35, -187500.02, -187398.61, -187500.02, -187500.02, 85761.72, 187500.00, -187500.02, 187500.00
36, -187500.02, -187446.11, -187500.02, -187500.02, 85635.03, 187500.00, -187500.02, 187500.00
37, -187500.02, -187458.75, -187500.02, -187500.02, 85501.30, 187500.00, -187500.02, 187500.00
38, -187500.02, -187451.47, -187500.02, -187500.02, 85362.38, 187500.00, -187500.02, 187500.00
39, -187500.02, -187412.31, -187500.02, -187500.02, 85208.49, 187500.00, -187500.02, 187500.00
40, -187500.02, -187410.70, -187500.02, -187500.02, 85055.00, 187500.00, -187500.02, 187500.00
41, -187500.02, -187424.36, -187500.02, -187500.02, 84896.20, 187500.00, -187500.02, 187500.00
42, -187500.02, -187364.25, -187500.02, -187500.02, 84731.23, 187500.00, -187500.02, 187500.00
43, -187500.02, -187325.53, -187455.63, -187500.02, 84568.25, 187500.00, -187500.02, 187500.00
44, -187500.02, -187345.92, -187367.53, -187500.02, 84415.80, 187500.00, -187500.02, 187500.00
45, -187500.02, -187379.11, -187237.19, -187500.02, 84272.53, 187500.00, -187500.02, 187500.00
46, -187500.02, -187408.19, -187222.16, -187500.02, 84140.86, 187500.00, -187500.02, 187500.00
47, -187500.02, -187401.53, -187234.56, -187500.02, 84011.30, 187500.00, -187500.02, 187500.00
48, -187500.02, -187291.52, -187244.41, -187500.02, 83884.04, 187500.00, -187500.02, 187500.00
49, -187500.02, -187326.34, -187252.27, -187500.02, 83752.92, 187500.00, -187500.02, 187500.00
50, -187500.02, -187361.13, -187266.28, -187500.02, 83620.35, 187500.00, -187500.02, 187500.00
51, -187500.02, -187374.48, -187280.44, -187500.02, 83491.43, 187500.00, -187500.02, 187500.00
52, -187500.02, -187347.91, -187292.86, -187500.02, 83365.73, 187500.00, -187500.02, 187500.00
53, -187500.02, -187335.38, -187305.41, -187500.02, 83235.84, 187500.00, -187500.02, 187500.00
54, -187500.02, -187330.20, -187321.42, -187500.02, 83106.47, 187500.00, -187500.02, 187500.00
55, -187500.02, -187314.11, -187332.73, -187500.02, 82976.09, 187500.00, -187500.02, 187500.00
56, -187500.02, -187344.88, -187340.78, -187500.02, 82850.76, 187500.00, -187500.02, 187500.00
57, -187500.02, -187334.34, -187354.13, -187500.02, 82725.46, 187500.00, -187500.02, 187500.00
58, -187500.02, -187342.23, -187366.38, -187500.02, 82594.70, 187500.00, -187500.02, 187500.00
59, -187500.02, -187267.84, -187374.98, -187500.02, 82464.95, 187500.00, -187500.02, 187500.00
60, -187500.02, -187284.05, -187389.83, -187500.02, 82342.77, 187500.00, -187500.02, 187500.00
61, -187500.02, -187316.69, -187405.89, -187500.02, 82217.88, 187500.00, -187500.02, 187500.00
62, -187500.02, -187330.48, -187417.00, -187500.02, 82088.19, 187500.00, -187500.02, 187500.00
63, -187500.02, -187337.20, -187425.05, -187500.02, 81958.03, 187500.00, -187500.02, 187500.00
64, -187500.02, -187298.67, -187442.39, -187500.02, 81836.98, 187500.00, -187500.02, 187500.00
65, -187500.02, -187251.00, -187500.02, -187500.02, 81710.46, 187500.00, -187500.02, 187500.00
66, -187500.02, -187242.33, -187500.02, -187500.02, 81555.95, 187500.00, -187500.02, 187500.00
67, -187500.02, -187229.30, -187487.14, -187500.02, 81395.30, 187500.00, -187500.02, 187500.00
68, -187500.02, -187250.66, -187424.11, -187500.02, 81244.81, 187500.00, -187500.02, 187500.00
69, -187500.02, -187238.95, -187362.84, -187500.02, 81093.84, 187500.00, -187500.02, 187500.00
70, -187500.02, -187226.67, -187298.09, -187500.02, 80935.10, 187500.00, -187500.02, 187500.00
71, -187500.02, -187223.72, -187193.03, -187500.02, 80781.62, 187500.00, -187500.02, 187500.00
72, -187500.02, -187185.55, -187070.17, -187500.02, 80650.05, 187500.00, -187500.02, 187500.00
73, -187500.02, -187230.86, -187067.31, -187500.02, 80532.75, 187500.00, -187500.02, 187500.00
74, -187500.02, -187257.00, -187083.78, -187500.02, 80410.13, 187500.00, -187500.02, 187500.00
75, -187500.02, -187256.56, -187092.45, -187500.02, 80283.09, 187500.00, -187500.02, 187500.00
76, -187500.02, -187205.44, -187101.28, -187500.02, 80162.38, 187500.00, -187500.02, 187500.00
77, -187500.02, -187153.86, -187113.84, -187500.02, 80040.16, 187500.00, -187500.02, 187500.00
78, -187500.02, -187200.64, -187131.23, -187500.02, 79915.40, 187500.00, -187500.02, 187500.00
79, -187500.02, -187129.83, -187140.58, -187500.02, 79789.06, 187500.00, -187500.02, 187500.00
80, -187500.02, -187093.80, -187151.06, -187500.02, 79670.53, 187500.00, -187500.02, 187500.00
81, -187500.02, -187137.83, -187159.52, -187500.02, 79553.37, 187500.00, -187500.02, 187500.00
82, -187500.02, -187172.36, -187178.16, -187500.02, 79431.75, 187500.00, -187500.02, 187500.00
83, -187500.02, -187173.14, -187194.38, -187500.02, 79310.89, 187500.00, -187500.02, 187500.00
84, -187500.02, -187150.72, -187203.50, -187500.02, 79193.39, 187500.00, -187500.02, 187500.00
85, -187500.02, -187149.11, -187216.66, -187500.02, 79075.06, 187500.00, -187500.02, 187500.00
86, -187500.02, -187140.20, -187227.92, -187500.02, 78950.78, 187500.00, -187500.02, 187500.00
87, -187500.02, -187123.30, -187241.39, -187500.02, 78829.88, 187500.00, -187500.02, 187500.00
88, -187500.02, -187119.98, -187257.48, -187500.02, 78716.43, 187500.00, -187500.02, 187500.00
89, -187500.02, -187185.61, -187270.94, -187500.02, 78604.38, 187500.00, -187500.02, 187500.00
90, -187500.02, -187146.81, -187282.22, -187500.02, 78477.46, 187500.00, -187500.02, 187500.00
91, -187500.02, -187115.61, -187367.00, -187500.02, 78345.23, 187500.00, -187500.02, 187500.00
92, -187500.02, -187087.30, -187376.70, -187500.02, 78205.42, 187500.00, -187500.02, 187500.00
93, -187500.02, -187104.91, -187314.03, -187500.02, 78062.34, 187500.00, -187500.02, 187500.00
94, -187500.02, -187124.70, -187250.17, -187500.02, 77911.61, 187500.00, -187500.02, 187500.00
95, -187500.02, -187087.16, -187189.06, -187500.02, 77758.45, 187500.00, -187500.02, 187500.00
96, -187500.02, -187101.33, -187105.33, -187500.02, 77613.44, 187500.00, -187500.02, 187500.00
97, -187500.02, -187070.81, -186964.02, -187500.02, 77487.30, 187500.00, -187500.02, 187500.00
98, -187500.02, -187122.86, -186940.86, -187500.02, 77369.27, 187500.00, -187500.02, 187500.00
99, -187500.02, -187079.27, -186955.11, -187500.02, 77245.03, 187500.00, -187500.02, 187500.00
100, -187500.02, -187035.33, -186966.13, -187500.02, 77126.32, 187500.00, -187500.02, 187500.00
101, -187500.02, -187037.14, -186980.50, -187500.02, 77017.58, 187500.00, -187500.02, 187500.00
102, -187500.02, -187052.06, -186992.23, -187500.02, 76903.81, 187500.00, -187500.02, 187500.00
103, -187500.02, -187033.89, -187004.20, -187500.02, 76783.29, 187500.00, -187500.02, 187500.00
104, -187500.02, -187033.58, -187015.94, -187500.02, 76667.06, 187500.00, -187500.02, 187500.00
105, -187500.02, -187047.80, -187030.30, -187500.02, 76559.80, 187500.00, -187500.02, 187500.00
106, -187500.02, -187047.69, -187045.30, -187500.02, 76449.67, 187500.00, -187500.02, 187500.00
107, -187500.02, -187048.94, -187059.03, -187500.02, 76331.14, 187500.00, -187500.02, 187500.00
108, -187500.02, -187014.52, -187071.48, -187500.02, 76213.81, 187500.00, -187500.02, 187500.00
109, -187500.02, -186979.63, -187079.56, -187500.02, 76099.95, 187500.00, -187500.02, 187500.00
110, -187500.02, -186992.92, -187092.16, -187500.02, 75990.36, 187500.00, -187500.02, 187500.00
111, -187500.02, -187028.84, -187104.33, -187500.02, 75870.52, 187500.00, -187500.02, 187500.00
112, -187500.02, -186997.23, -187118.38, -187500.02, 75753.79, 187500.00, -187500.02, 187500.00
113, -187500.02, -187016.30, -187124.27, -187500.02, 75642.99, 187500.00, -187500.02, 187500.00
114, -187500.02, -187006.58, -187133.97, -187500.02, 75535.88, 187500.00, -187500.02, 187500.00
115, -187500.02, -186997.64, -187143.34, -187500.02, 75418.16, 187500.00, -187500.02, 187500.00
116, -187500.02, -186992.20, -187206.17, -187500.02, 75294.04, 187500.00, -187500.02, 187500.00
117, -187500.02, -186977.31, -187259.00, -187500.02, 75162.72, 187500.00, -187500.02, 187500.00
118, -187500.02, -187014.38, -187202.77, -187500.02, 75026.94, 187500.00, -187500.02, 187500.00
119, -187500.02, -186991.67, -187134.83, -187500.02, 74879.10, 187500.00, -187500.02, 187500.00
120, -187500.02, -186990.75, -187071.53, -187500.02, 74732.45, 187500.00, -187500.02, 187500.00
121, -187500.02, -186917.00, -187008.25, -187500.02, 74594.27, 187500.00, -187500.02, 187500.00
122, -187500.02, -186927.98, -186898.48, -187500.02, 74466.42, 187500.00, -187500.02, 187500.00
123, -187500.02, -186977.64, -186782.25, -187500.02, 74345.43, 187500.00, -187500.02, 187500.00
124, -187500.02, -186890.03, -186784.17, -187500.02, 74227.28, 187500.00, -187500.02, 187500.00
125, -187500.02, -186883.89, -186800.42, -187500.02, 74116.39, 187500.00, -187500.02, 187500.00
126, -187500.02, -186866.67, -186812.83, -187500.02, 74012.50, 187500.00, -187500.02, 187500.00
127, -187500.02, -186893.97, -186823.36, -187500.02, 73903.07, 187500.00, -187500.02, 187500.00
128, -187500.02, -186889.95, -186837.20, -187500.02, 73789.07, 187500.00, -187500.02, 187500.00
129, -187500.02, -186914.06, -186850.88, -187500.02, 73682.01, 187500.00, -187500.02, 187500.00
130, -187500.02, -186904.30, -186860.69, -187500.02, 73581.02, 187500.00, -187500.02, 187500.00
131, -187500.02, -186925.67, -186866.81, -187500.02, 73475.03, 187500.00, -187500.02, 187500.00
132, -187500.02, -186927.50, -186884.03, -187500.02, 73359.95, 187500.00, -187500.02, 187500.00
133, -187500.02, -186901.64, -186898.31, -187500.02, 73244.97, 187500.00, -187500.02, 187500.00
134, -187500.02, -186880.17, -186909.77, -187500.02, 73140.41, 187500.00, -187500.02, 187500.00
135, -187500.02, -186882.61, -186921.53, -187500.02, 73037.59, 187500.00, -187500.02, 187500.00
136, -187500.02, -186907.63, -186938.00, -187500.02, 72926.95, 187500.00, -187500.02, 187500.00
137, -187500.02, -186851.84, -186952.00, -187500.02, 72819.48, 187500.00, -187500.02, 187500.00
138, -187500.02, -186846.83, -186962.66, -187500.02, 72716.16, 187500.00, -187500.02, 187500.00
139, -187500.02, -186883.22, -186973.23, -187500.02, 72615.63, 187500.00, -187500.02, 187500.00
140, -187500.02, -186882.34, -186982.30, -187500.02, 72503.98, 187500.00, -187500.02, 187500.00
141, -187500.02, -186793.95, -186995.61, -187500.02, 72390.64, 187500.00, -187500.02, 187500.00
142, -187500.02, -186832.22, -187030.05, -187500.02, 72280.55, 187500.00, -187500.02, 187500.00
143, -187500.02, -186811.50, -187112.08, -187500.02, 72164.13, 187500.00, -187500.02, 187500.00
144, -187500.02, -186817.27, -187078.75, -187500.02, 72028.98, 187500.00, -187500.02, 187500.00
145, -187500.02, -186809.48, -187015.05, -187500.02, 71890.07, 187500.00, -187500.02, 187500.00
146, -187500.02, -186766.75, -186947.89, -187500.02, 71756.12, 187500.00, -187500.02, 187500.00
147, -187500.02, -186770.25, -186884.03, -187500.02, 71629.11, 187500.00, -187500.02, 187500.00
148, -187500.02, -186862.64, -186789.00, -187500.02, 71492.68, 187500.00, -187500.02, 187500.00
149, -187500.02, -186796.42, -186658.98, -187500.02, 71362.50, 187500.00, -187500.02, 187500.00
150, -187500.02, -186786.69, -186648.61, -187500.02, 71256.53, 187500.00, -187500.02, 187500.00
151, -187500.02, -186769.03, -186661.78, -187500.02, 71159.95, 187500.00, -187500.02, 187500.00
152, -187500.02, -186777.78, -186672.86, -187500.02, 71057.76, 187500.00, -187500.02, 187500.00
153, -187500.02, -186826.67, -186681.55, -187500.02, 70949.11, 187500.00, -187500.02, 187500.00
154, -187500.02, -186768.63, -186696.69, -187500.02, 70845.04, 187500.00, -187500.02, 187500.00
155, -187500.02, -186720.30, -186706.66, -187500.02, 70746.45, 187500.00, -187500.02, 187500.00
156, -187500.02, -186763.66, -186715.92, -187500.02, 70646.20, 187500.00, -187500.02, 187500.00
157, -187500.02, -186772.02, -186732.66, -187500.02, 70537.66, 187500.00, -187500.02, 187500.00
158, -187500.02, -186755.72, -186745.59, -187500.02, 70433.52, 187500.00, -187500.02, 187500.00
159, -187500.02, -186726.67, -186756.16, -187500.02, 70337.00, 187500.00, -187500.02, 187500.00
160, -187500.02, -186732.53, -186767.66, -187500.02, 70242.74, 187500.00, -187500.02, 187500.00
161, -187500.02, -186766.39, -186780.94, -187500.02, 70141.18, 187500.00, -187500.02, 187500.00
162, -187500.02, -186739.19, -186799.88, -187500.02, 70037.71, 187500.00, -187500.02, 187500.00
163, -187500.02, -186715.56, -186807.63, -187500.02, 69936.77, 187500.00, -187500.02, 187500.00
164, -187500.02, -186753.89, -186812.81, -187500.02, 69839.34, 187500.00, -187500.02, 187500.00
165, -187500.02, -186747.98, -186822.58, -187500.02, 69733.51, 187500.00, -187500.02, 187500.00
166, -187500.02, -186747.80, -186835.00, -187500.02, 69628.01, 187500.00, -187500.02, 187500.00
167, -187500.02, -186686.33, -186848.70, -187500.02, 69527.47, 187500.00, -187500.02, 187500.00
168, -187500.02, -186660.47, -186880.66, -187500.02, 69431.58, 187500.00, -187500.02, 187500.00
169, -187500.02, -186665.67, -186962.41, -187500.02, 69316.87, 187500.00, -187500.02, 187500.00
170, -187500.02, -186693.20, -186931.81, -187500.02, 69183.52, 187500.00, -187500.02, 187500.00
171, -187500.02, -186690.39, -186873.92, -187500.02, 69056.12, 187500.00, -187500.02, 187500.00
172, -187500.02, -186618.75, -186807.97, -187500.02, 68933.02, 187500.00, -187500.02, 187500.00
173, -187500.02, -186661.38, -186744.44, -187500.02, 68803.27, 187500.00, -187500.02, 187500.00
174, -187500.02, -186640.81, -186636.59, -187500.02, 68671.24, 187500.00, -187500.02, 187500.00
175, -187500.02, -186625.69, -186514.11, -187500.02, 68563.99, 187500.00, -187500.02, 187500.00
176, -187500.02, -186597.25, -186508.66, -187500.02, 68475.41, 187500.00, -187500.02, 187500.00
177, -187500.02, -186622.55, -186519.06, -187500.02, 68381.45, 187500.00, -187500.02, 187500.00
178, -187500.02, -186677.38, -186531.78, -187500.02, 68276.84, 187500.00, -187500.02, 187500.00
179, -187500.02, -186622.70, -186546.22, -187500.02, 68176.93, 187500.00, -187500.02, 187500.00
180, -187500.02, -186597.19, -186559.88, -187500.02, 68085.60, 187500.00, -187500.02, 187500.00
181, -187500.02, -186585.03, -186570.72, -187500.02, 67989.91, 187500.00, -187500.02, 187500.00
182, -187500.02, -186595.17, -186583.61, -187500.02, 67888.21, 187500.00, -187500.02, 187500.00
183, -187500.02, -186614.31, -186595.94, -187500.02, 67789.98, 187500.00, -187500.02, 187500.00
184, -187500.02, -186624.97, -186602.34, -187500.02, 67695.52, 187500.00, -187500.02, 187500.00
185, -187500.02, -186582.75, -186612.19, -187500.02, 67604.55, 187500.00, -187500.02, 187500.00
186, -187500.02, -186588.47, -186628.55, -187500.02, 67504.59, 187500.00, -187500.02, 187500.00
187, -187500.02, -186565.98, -186644.61, -187500.02, 67406.96, 187500.00, -187500.02, 187500.00
188, -187500.02, -186554.05, -186658.11, -187500.02, 67315.88, 187500.00, -187500.02, 187500.00
189, -187500.02, -186554.73, -186668.69, -187500.02, 67226.29, 187500.00, -187500.02, 187500.00
190, -187500.02, -186570.36, -186678.23, -187500.02, 67128.08, 187500.00, -187500.02, 187500.00
191, -187500.02, -186534.78, -186685.98, -187500.02, 67027.09, 187500.00, -187500.02, 187500.00
192, -187500.02, -186554.77, -186699.31, -187500.02, 66936.16, 187500.00, -187500.02, 187500.00
193, -187500.02, -186603.36, -186707.73, -187500.02, 66852.77, 187500.00, -187500.02, 187500.00
194, -187500.02, -186570.20, -186717.55, -187500.02, 66758.78, 187500.00, -187500.02, 187500.00
195, -187500.02, -186542.83, -186764.84, -187500.02, 66659.65, 187500.00, -187500.02, 187500.00
196, -187500.02, -186459.63, -186838.27, -187500.02, 66548.77, 187500.00, -187500.02, 187500.00
197, -187500.02, -186487.61, -186790.38, -187500.02, 66430.34, 187500.00, -187500.02, 187500.00
198, -187500.02, -186507.75, -186725.14, -187500.02, 66309.27, 187500.00, -187500.02, 187500.00
199, -187500.02, -186536.23, -186663.84, -187500.02, 66181.41, 187500.00, -187500.02, 187500.00
200, -187500.02, -186538.13, -186600.20, -187500.02, 66059.04, 187500.00, -187500.02, 187500.00
201, -187500.02, -186502.45, -186497.70, -187500.02, 65948.46, 187500.00, -187500.02, 187500.00
202, -187500.02, -186536.03, -186369.80, -187500.02, 65848.41, 187500.00, -187500.02, 187500.00
203, -187500.02, -186485.92, -186365.98, -187500.02, 65751.92, 187500.00, -187500.02, 187500.00
204, -187500.02, -186502.75, -186375.61, -187500.02, 65658.91, 187500.00, -187500.02, 187500.00
205, -187500.02, -186477.89, -186390.45, -187500.02, 65572.75, 187500.00, -187500.02, 187500.00
206, -187500.02, -186490.64, -186402.75, -187500.02, 65486.61, 187500.00, -187500.02, 187500.00
207, -187500.02, -186502.77, -186414.03, -187500.02, 65390.74, 187500.00, -187500.02, 187500.00
208, -187500.02, -186511.31, -186426.42, -187500.02, 65298.61, 187500.00, -187500.02, 187500.00
209, -187500.02, -186459.81, -186436.36, -187500.02, 65214.86, 187500.00, -187500.02, 187500.00
210, -187500.02, -186445.03, -186447.81, -187500.02, 65135.75, 187500.00, -187500.02, 187500.00
211, -187500.02, -186453.59, -186458.38, -187500.02, 65044.09, 187500.00, -187500.02, 187500.00
212, -187500.02, -186457.84, -186467.61, -187500.02, 64947.57, 187500.00, -187500.02, 187500.00
213, -187500.02, -186458.58, -186476.94, -187500.02, 64857.52, 187500.00, -187500.02, 187500.00
214, -187500.02, -186424.14, -186485.20, -187500.02, 64775.42, 187500.00, -187500.02, 187500.00
215, -187500.02, -186448.80, -186496.59, -187500.02, 64685.48, 187500.00, -187500.02, 187500.00
216, -187500.02, -186385.09, -186513.19, -187500.02, 64592.85, 187500.00, -187500.02, 187500.00
217, -187500.02, -186442.72, -186524.67, -187500.02, 64506.33, 187500.00, -187500.02, 187500.00
218, -187500.02, -186407.00, -186530.06, -187500.02, 64422.62, 187500.00, -187500.02, 187500.00
219, -187500.02, -186414.91, -186538.67, -187500.02, 64333.19, 187500.00, -187500.02, 187500.00
220, -187500.02, -186374.22, -186549.64, -187500.02, 64238.31, 187500.00, -187500.02, 187500.00
221, -187500.02, -186370.69, -186562.94, -187500.02, 64149.79, 187500.00, -187500.02, 187500.00
222, -187500.02, -186335.36, -186572.59, -187500.02, 64066.40, 187500.00, -187500.02, 187500.00
223, -187500.02, -186384.02, -186649.16, -187500.02, 63973.17, 187500.00, -187500.02, 187500.00
224, -187500.02, -186433.84, -186679.39, -187500.02, 63855.60, 187500.00, -187500.02, 187500.00
225, -187500.02, -186407.97, -186612.00, -187500.02, 63737.25, 187500.00, -187500.02, 187500.00
226, -187500.02, -186396.05, -186543.78, -187500.02, 63627.55, 187500.00, -187500.02, 187500.00
227, -187500.02, -186421.05, -186483.75, -187500.02, 63514.96, 187500.00, -187500.02, 187500.00
228, -187500.02, -186394.14, -186415.39, -187500.02, 63391.58, 187500.00, -187500.02, 187500.00
229, -187500.02, -186335.16, -186280.70, -187500.02, 63280.09, 187500.00, -187500.02, 187500.00
230, -187500.02, -186368.08, -186207.81, -187500.02, 63194.70, 187500.00, -187500.02, 187500.00
231, -187500.02, -186418.33, -186213.30, -187500.02, 63113.77, 187500.00, -187500.02, 187500.00
232, -187500.02, -186347.81, -186225.00, -187500.02, 63023.45, 187500.00, -187500.02, 187500.00
233, -187500.02, -186340.72, -186236.94, -187500.02, 62934.33, 187500.00, -187500.02, 187500.00
234, -187500.02, -186327.08, -186247.84, -187500.02, 62851.89, 187500.00, -187500.02, 187500.00
235, -187500.02, -186315.78, -186262.31, -187500.02, 62774.96, 187500.00, -187500.02, 187500.00
236, -187500.02, -186344.19, -186274.25, -187500.02, 62685.78, 187500.00, -187500.02, 187500.00
237, -187500.02, -186320.47, -186286.00, -187500.02, 62594.96, 187500.00, -187500.02, 187500.00
238, -187500.02, -186258.83, -186297.22, -187500.02, 62512.33, 187500.00, -187500.02, 187500.00
239, -187500.02, -186263.81, -186307.64, -187500.02, 62435.35, 187500.00, -187500.02, 187500.00
240, -187500.02, -186328.92, -186316.14, -187500.02, 62348.82, 187500.00, -187500.02, 187500.00
241, -187500.02, -186260.05, -186324.81, -187500.02, 62260.18, 187500.00, -187500.02, 187500.00
242, -187500.02, -186239.91, -186334.89, -187500.02, 62176.83, 187500.00, -187500.02, 187500.00
243, -187500.02, -186278.22, -186347.14, -187500.02, 62101.84, 187500.00, -187500.02, 187500.00
244, -187500.02, -186340.03, -186363.67, -187500.02, 62018.67, 187500.00, -187500.02, 187500.00
245, -187500.02, -186311.81, -186378.47, -187500.02, 61926.60, 187500.00, -187500.02, 187500.00
246, -187500.02, -186226.06, -186387.77, -187500.02, 61840.03, 187500.00, -187500.02, 187500.00
247, -187500.02, -186243.09, -186399.53, -187500.02, 61763.63, 187500.00, -187500.02, 187500.00
248, -187500.02, -186267.25, -186413.34, -187500.02, 61684.06, 187500.00, -187500.02, 187500.00
249, -187500.02, -186230.50, -186420.45, -187500.02, 61596.49, 187500.00, -187500.02, 187500.00
250, -187500.02, -186246.53, -186436.13, -187500.02, 61513.54, 187500.00, -187500.02, 187500.00
251, -187500.02, -186216.33, -186517.03, -187500.02, 61432.52, 187500.00, -187500.02, 187500.00
252, -187500.02, -186207.84, -186535.42, -187500.02, 61330.82, 187500.00, -187500.02, 187500.00
253, -187500.02, -186170.91, -186471.75, -187500.02, 61210.21, 187500.00, -187500.02, 187500.00
254, -187500.02, -186189.95, -186406.20, -187500.02, 61095.36, 187500.00, -187500.02, 187500.00
255, -187500.02, -186179.34, -186340.31, -187500.02, 60988.81, 187500.00, -187500.02, 187500.00
256, -187500.02, -186149.70, -186272.55, -187500.02, 60884.23, 187500.00, -187500.02, 187500.00
257, -187500.02, -186191.98, -186155.33, -187500.02, 60776.49, 187500.00, -187500.02, 187500.00
258, -187500.02, -186156.59, -186043.27, -187500.02, 60684.25, 187500.00, -187500.02, 187500.00
259, -187500.02, -186196.55, -186046.69, -187500.02, 60609.30, 187500.00, -187500.02, 187500.00
260, -187500.02, -186144.88, -186059.80, -187500.02, 60538.98, 187500.00, -187500.02, 187500.00
261, -187500.02, -186151.27, -186068.66, -187500.02, 60453.73, 187500.00, -187500.02, 187500.00
262, -187500.02, -186162.88, -186083.91, -187500.02, 60369.58, 187500.00, -187500.02, 187500.00
263, -187500.02, -186101.09, -186093.72, -187500.02, 60291.88, 187500.00, -187500.02, 187500.00
264, -187500.02, -186099.70, -186101.42, -187500.02, 60219.24, 187500.00, -187500.02, 187500.00
265, -187500.02, -186193.95, -186114.19, -187500.02, 60140.38, 187500.00, -187500.02, 187500.00
266, -187500.02, -186181.42, -186126.05, -187500.02, 60057.41, 187500.00, -187500.02, 187500.00
267, -187500.02, -186117.52, -186135.64, -187500.02, 59980.64, 187500.00, -187500.02, 187500.00
268, -187500.02, -186091.77, -186150.08, -187500.02, 59910.92, 187500.00, -187500.02, 187500.00
269, -187500.02, -186144.31, -186164.30, -187500.02, 59833.47, 187500.00, -187500.02, 187500.00
270, -187500.02, -186142.17, -186173.97, -187500.02, 59748.98, 187500.00, -187500.02, 187500.00
271, -187500.02, -186093.72, -186186.66, -187500.02, 59670.46, 187500.00, -187500.02, 187500.00
272, -187500.02, -186078.80, -186196.59, -187500.02, 59599.14, 187500.00, -187500.02, 187500.00
273, -187500.02, -186072.08, -186205.41, -187500.02, 59524.06, 187500.00, -187500.02, 187500.00
274, -187500.02, -186086.17, -186214.97, -187500.02, 59437.87, 187500.00, -187500.02, 187500.00
275, -187500.02, -186074.22, -186226.92, -187500.02, 59357.04, 187500.00, -187500.02, 187500.00
276, -187500.02, -186075.34, -186235.48, -187500.02, 59284.42, 187500.00, -187500.02, 187500.00
277, -187500.02, -186080.53, -186245.28, -187500.02, 59209.90, 187500.00, -187500.02, 187500.00
278, -187500.02, -186063.09, -186259.14, -187500.02, 59127.43, 187500.00, -187500.02, 187500.00
279, -187500.02, -186050.22, -186270.53, -187500.02, 59045.28, 187500.00, -187500.02, 187500.00
280, -187500.02, -186070.59, -186340.92, -187500.02, 58966.76, 187500.00, -187500.02, 187500.00
281, -187500.02, -186044.22, -186368.03, -187500.02, 58873.06, 187500.00, -187500.02, 187500.00
282, -187500.02, -186043.02, -186303.95, -187500.02, 58760.34, 187500.00, -187500.02, 187500.00
283, -187500.02, -186032.27, -186241.08, -187500.02, 58648.74, 187500.00, -187500.02, 187500.00
284, -187500.02, -186006.86, -186180.08, -187500.02, 58546.82, 187500.00, -187500.02, 187500.00
285, -187500.02, -186039.13, -186109.38, -187500.02, 58448.78, 187500.00, -187500.02, 187500.00
286, -187500.02, -186072.20, -185969.77, -187500.02, 58349.61, 187500.00, -187500.02, 187500.00
287, -187500.02, -186003.41, -185909.89, -187500.02, 58267.62, 187500.00, -187500.02, 187500.00
288, -187500.02, -186006.73, -185921.72, -187500.02, 58196.79, 187500.00, -187500.02, 187500.00
289, -187500.02, -185984.48, -185932.28, -187500.02, 58130.05, 187500.00, -187500.02, 187500.00
290, -187500.02, -186035.31, -185941.97, -187500.02, 58056.53, 187500.00, -187500.02, 187500.00
291, -187500.02, -186002.63, -185952.30, -187500.02, 57979.17, 187500.00, -187500.02, 187500.00
292, -187500.02, -185958.44, -185962.84, -187500.02, 57904.90, 187500.00, -187500.02, 187500.00
293, -187500.02, -185949.31, -185971.45, -187500.02, 57834.87, 187500.00, -187500.02, 187500.00
294, -187500.02, -186018.45, -185977.58, -187500.02, 57759.61, 187500.00, -187500.02, 187500.00
295, -187500.02, -186010.14, -185994.45, -187500.02, 57681.98, 187500.00, -187500.02, 187500.00
296, -187500.02, -185949.75, -186008.50, -187500.02, 57609.79, 187500.00, -187500.02, 187500.00
297, -187500.02, -185955.31, -186011.08, -187500.02, 57544.27, 187500.00, -187500.02, 187500.00
298, -187500.02, -185941.58, -186019.95, -187500.02, 57473.80, 187500.00, -187500.02, 187500.00
299, -187500.02, -185931.73, -186034.05, -187500.02, 57393.62, 187500.00, -187500.02, 187500.00
300, -187500.02, -185915.86, -186045.67, -187500.02, 57319.26, 187500.00, -187500.02, 187500.00
301, -187500.02, -185943.89, -186061.22, -187500.02, 57253.57, 187500.00, -187500.02, 187500.00
302, -187500.02, -185964.94, -186067.33, -187500.02, 57183.76, 187500.00, -187500.02, 187500.00
303, -187500.02, -185928.17, -186076.41, -187500.02, 57105.04, 187500.00, -187500.02, 187500.00
304, -187500.02, -185908.38, -186084.34, -187500.02, 57029.67, 187500.00, -187500.02, 187500.00
305, -187500.02, -185926.41, -186091.31, -187500.02, 56964.18, 187500.00, -187500.02, 187500.00
306, -187500.02, -185903.03, -186102.36, -187500.02, 56897.57, 187500.00, -187500.02, 187500.00
307, -187500.02, -185885.97, -186114.16, -187500.02, 56822.13, 187500.00, -187500.02, 187500.00
308, -187500.02, -185926.14, -186177.78, -187500.02, 56742.07, 187500.00, -187500.02, 187500.00
309, -187500.02, -185883.50, -186233.66, -187500.02, 56650.90, 187500.00, -187500.02, 187500.00
310, -187500.02, -185889.27, -186179.55, -187500.02, 56559.28, 187500.00, -187500.02, 187500.00
311, -187500.02, -185923.50, -186118.98, -187500.02, 56457.46, 187500.00, -187500.02, 187500.00
312, -187500.02, -185905.78, -186054.70, -187500.02, 56351.41, 187500.00, -187500.02, 187500.00
313, -187500.02, -185900.23, -185985.34, -187500.02, 56256.66, 187500.00, -187500.02, 187500.00
314, -187500.02, -185918.86, -185858.50, -187500.02, 56176.82, 187500.00, -187500.02, 187500.00
315, -187500.02, -185944.95, -185769.86, -187500.02, 56103.95, 187500.00, -187500.02, 187500.00
316, -187500.02, -185885.33, -185777.05, -187500.02, 56028.20, 187500.00, -187500.02, 187500.00
317, -187500.02, -185887.58, -185785.95, -187500.02, 55956.43, 187500.00, -187500.02, 187500.00
318, -187500.02, -185862.48, -185792.66, -187500.02, 55894.40, 187500.00, -187500.02, 187500.00
319, -187500.02, -185860.92, -185801.78, -187500.02, 55827.59, 187500.00, -187500.02, 187500.00
320, -187500.02, -185864.06, -185809.52, -187500.02, 55751.73, 187500.00, -187500.02, 187500.00
321, -187500.02, -185834.67, -185824.48, -187500.02, 55683.40, 187500.00, -187500.02, 187500.00
322, -187500.02, -185818.16, -185835.77, -187500.02, 55620.70, 187500.00, -187500.02, 187500.00
323, -187500.02, -185865.30, -185839.80, -187500.02, 55555.80, 187500.00, -187500.02, 187500.00
324, -187500.02, -185845.83, -185848.56, -187500.02, 55480.83, 187500.00, -187500.02, 187500.00
325, -187500.02, -185855.36, -185865.14, -187500.02, 55408.59, 187500.00, -187500.02, 187500.00
326, -187500.02, -185854.45, -185881.77, -187500.02, 55347.10, 187500.00, -187500.02, 187500.00
327, -187500.02, -185865.56, -185888.86, -187500.02, 55286.03, 187500.00, -187500.02, 187500.00
328, -187500.02, -185845.63, -185895.23, -187500.02, 55212.96, 187500.00, -187500.02, 187500.00
329, -187500.02, -185826.39, -185903.39, -187500.02, 55143.70, 187500.00, -187500.02, 187500.00
330, -187500.02, -185790.63, -185918.27, -187500.02, 55082.18, 187500.00, -187500.02, 187500.00
331, -187500.02, -185798.83, -185928.42, -187500.02, 55022.01, 187500.00, -187500.02, 187500.00
332, -187500.02, -185792.97, -185936.47, -187500.02, 54949.97, 187500.00, -187500.02, 187500.00
333, -187500.02, -185783.80, -185947.94, -187500.02, 54877.02, 187500.00, -187500.02, 187500.00
334, -187500.02, -185745.61, -185960.14, -187500.02, 54814.59, 187500.00, -187500.02, 187500.00
335, -187500.02, -185771.89, -185975.05, -187500.02, 54755.16, 187500.00, -187500.02, 187500.00
336, -187500.02, -185795.50, -186057.66, -187500.02, 54680.28, 187500.00, -187500.02, 187500.00
337, -187500.02, -185742.88, -186068.25, -187500.02, 54587.07, 187500.00, -187500.02, 187500.00
338, -187500.02, -185754.92, -185999.34, -187500.02, 54492.84, 187500.00, -187500.02, 187500.00
339, -187500.02, -185742.78, -185928.33, -187500.02, 54405.98, 187500.00, -187500.02, 187500.00
340, -187500.02, -185751.06, -185860.92, -187500.02, 54310.73, 187500.00, -187500.02, 187500.00
341, -187500.02, -185749.89, -185789.97, -187500.02, 54207.72, 187500.00, -187500.02, 187500.00
342, -187500.02, -185746.56, -185646.88, -187500.02, 54121.42, 187500.00, -187500.02, 187500.00
343, -187500.02, -185657.34, -185591.16, -187500.02, 54059.28, 187500.00, -187500.02, 187500.00
344, -187500.02, -185713.13, -185605.28, -187500.02, 53997.48, 187500.00, -187500.02, 187500.00
345, -187500.02, -185681.52, -185614.58, -187500.02, 53926.58, 187500.00, -187500.02, 187500.00
346, -187500.02, -185657.09, -185625.64, -187500.02, 53862.47, 187500.00, -187500.02, 187500.00
347, -187500.02, -185635.59, -185634.78, -187500.02, 53803.98, 187500.00, -187500.02, 187500.00
348, -187500.02, -185667.03, -185647.55, -187500.02, 53742.60, 187500.00, -187500.02, 187500.00
349, -187500.02, -185697.19, -185662.08, -187500.02, 53670.54, 187500.00, -187500.02, 187500.00
350, -187500.02, -185710.00, -185671.22, -187500.02, 53601.11, 187500.00, -187500.02, 187500.00
351, -187500.02, -185668.38, -185682.28, -187500.02, 53542.44, 187500.00, -187500.02, 187500.00
352, -187500.02, -185684.67, -185698.84, -187500.02, 53489.15, 187500.00, -187500.02, 187500.00
353, -187500.02, -185619.03, -185710.83, -187500.02, 53424.69, 187500.00, -187500.02, 187500.00
354, -187500.02, -185603.63, -185720.39, -187500.02, 53360.05, 187500.00, -187500.02, 187500.00
355, -187500.02, -185600.88, -185726.31, -187500.02, 53300.77, 187500.00, -187500.02, 187500.00
356, -187500.02, -185636.22, -185733.80, -187500.02, 53242.99, 187500.00, -187500.02, 187500.00
357, -187500.02, -185619.39, -185746.95, -187500.02, 53174.80, 187500.00, -187500.02, 187500.00
358, -187500.02, -185600.14, -185757.19, -187500.02, 53107.05, 187500.00, -187500.02, 187500.00
359, -187500.02, -185605.48, -185766.27, -187500.02, 53047.41, 187500.00, -187500.02, 187500.00
360, -187500.02, -185584.42, -185777.86, -187500.02, 52994.89, 187500.00, -187500.02, 187500.00
361, -187500.02, -185610.25, -185779.52, -187500.02, 52932.75, 187500.00, -187500.02, 187500.00
362, -187500.02, -185650.70, -185793.73, -187500.02, 52867.75, 187500.00, -187500.02, 187500.00
363, -187500.02, -185592.42, -185804.81, -187500.02, 52807.92, 187500.00, -187500.02, 187500.00
364, -187500.02, -185586.91, -185846.67, -187500.02, 52748.66, 187500.00, -187500.02, 187500.00
365, -187500.02, -185639.23, -185924.53, -187500.02, 52667.26, 187500.00, -187500.02, 187500.00
366, -187500.02, -185588.19, -185879.02, -187500.02, 52567.23, 187500.00, -187500.02, 187500.00
367, -187500.02, -185595.11, -185809.84, -187500.02, 52472.64, 187500.00, -187500.02, 187500.00
368, -187500.02, -185588.19, -185745.98, -187500.02, 52390.74, 187500.00, -187500.02, 187500.00
369, -187500.02, -185621.44, -185678.84, -187500.02, 52307.17, 187500.00, -187500.02, 187500.00
370, -187500.02, -185622.00, -185578.89, -187500.02, 52213.18, 187500.00, -187500.02, 187500.00
371, -187500.02, -185600.28, -185447.41, -187500.02, 52137.92, 187500.00, -187500.02, 187500.00
372, -187500.02, -185541.20, -185443.66, -187500.02, 52083.43, 187500.00, -187500.02, 187500.00
373, -187500.02, -185528.28, -185457.16, -187500.02, 52028.22, 187500.00, -187500.02, 187500.00
374, -187500.02, -185578.77, -185466.00, -187500.02, 51961.30, 187500.00, -187500.02, 187500.00
375, -187500.02, -185561.88, -185475.06, -187500.02, 51896.97, 187500.00, -187500.02, 187500.00
376, -187500.02, -185559.34, -185483.84, -187500.02, 51840.60, 187500.00, -187500.02, 187500.00
377, -187500.02, -185536.55, -185495.63, -187500.02, 51789.17, 187500.00, -187500.02, 187500.00
378, -187500.02, -185532.92, -185507.61, -187500.02, 51725.24, 187500.00, -187500.02, 187500.00
379, -187500.02, -185518.48, -185522.63, -187500.02, 51662.55, 187500.00, -187500.02, 187500.00
380, -187500.02, -185487.78, -185531.13, -187500.02, 51603.67, 187500.00, -187500.02, 187500.00
381, -187500.02, -185488.36, -185538.81, -187500.02, 51547.19, 187500.00, -187500.02, 187500.00
382, -187500.02, -185482.50, -185552.47, -187500.02, 51484.29, 187500.00, -187500.02, 187500.00
383, -187500.02, -185514.38, -185566.34, -187500.02, 51423.00, 187500.00, -187500.02, 187500.00
384, -187500.02, -185523.73, -185576.33, -187500.02, 51367.91, 187500.00, -187500.02, 187500.00
385, -187500.02, -185498.75, -185580.88, -187500.02, 51315.38, 187500.00, -187500.02, 187500.00
386, -187500.02, -185517.44, -185590.42, -187500.02, 51255.86, 187500.00, -187500.02, 187500.00
387, -187500.02, -185510.75, -185600.25, -187500.02, 51194.50, 187500.00, -187500.02, 187500.00
388, -187500.02, -185468.17, -185614.56, -187500.02, 51138.38, 187500.00, -187500.02, 187500.00
389, -187500.02, -185464.58, -185626.34, -187500.02, 51085.31, 187500.00, -187500.02, 187500.00
390, -187500.02, -185489.66, -185635.97, -187500.02, 51026.86, 187500.00, -187500.02, 187500.00
391, -187500.02, -185502.00, -185654.25, -187500.02, 50963.00, 187500.00, -187500.02, 187500.00
392, -187500.02, -185434.84, -185658.30, -187500.02, 50901.22, 187500.00, -187500.02, 187500.00
393, -187500.02, -185423.14, -185667.03, -187500.02, 50852.05, 187500.00, -187500.02, 187500.00
394, -187500.02, -185472.95, -185736.27, -187500.02, 50791.99, 187500.00, -187500.02, 187500.00
395, -187500.02, -185462.31, -185762.38, -187500.02, 50704.89, 187500.00, -187500.02, 187500.00
396, -187500.02, -185460.16, -185701.13, -187500.02, 50617.02, 187500.00, -187500.02, 187500.00
397, -187500.02, -185396.53, -185635.70, -187500.02, 50535.57, 187500.00, -187500.02, 187500.00
398, -187500.02, -185409.28, -185571.28, -187500.02, 50455.51, 187500.00, -187500.02, 187500.00
399, -187500.02, -185444.45, -185501.22, -187500.02, 50361.61, 187500.00, -187500.02, 187500.00
400, -187500.02, -185426.36, -185374.16, -187500.02, 50276.29, 187500.00, -187500.02, 187500.00
401, -187500.02, -185423.05, -185280.64, -187500.02, 50218.87, 187500.00, -187500.02, 187500.00
402, -187500.02, -185425.34, -185288.16, -187500.02, 50169.50, 187500.00, -187500.02, 187500.00
403, -187500.02, -185348.39, -185296.38, -187500.02, 50108.72, 187500.00, -187500.02, 187500.00
404, -187500.02, -185339.94, -185309.48, -187500.02, 50050.98, 187500.00, -187500.02, 187500.00
405, -187500.02, -185387.33, -185324.52, -187500.02, 49999.69, 187500.00, -187500.02, 187500.00
406, -187500.02, -185353.09, -185336.05, -187500.02, 49951.74, 187500.00, -187500.02, 187500.00
407, -187500.02, -185385.41, -185341.59, -187500.02, 49892.98, 187500.00, -187500.02, 187500.00
408, -187500.02, -185397.70, -185353.56, -187500.02, 49831.85, 187500.00, -187500.02, 187500.00
409, -187500.02, -185357.33, -185364.22, -187500.02, 49779.30, 187500.00, -187500.02, 187500.00
410, -187500.02, -185372.88, -185377.89, -187500.02, 49733.19, 187500.00, -187500.02, 187500.00
411, -187500.02, -185389.98, -185393.45, -187500.02, 49678.63, 187500.00, -187500.02, 187500.00
412, -187500.02, -185386.91, -185403.28, -187500.02, 49617.99, 187500.00, -187500.02, 187500.00
413, -187500.02, -185359.34, -185418.22, -187500.02, 49564.01, 187500.00, -187500.02, 187500.00
414, -187500.02, -185323.27, -185429.89, -187500.02, 49517.45, 187500.00, -187500.02, 187500.00
415, -187500.02, -185344.53, -185440.13, -187500.02, 49467.02, 187500.00, -187500.02, 187500.00
416, -187500.02, -185326.22, -185449.67, -187500.02, 49408.57, 187500.00, -187500.02, 187500.00
417, -187500.02, -185317.75, -185455.56, -187500.02, 49355.96, 187500.00, -187500.02, 187500.00
418, -187500.02, -185325.09, -185466.20, -187500.02, 49310.56, 187500.00, -187500.02, 187500.00
419, -187500.02, -185324.83, -185474.05, -187500.02, 49261.50, 187500.00, -187500.02, 187500.00
420, -187500.02, -185321.95, -185478.56, -187500.02, 49200.01, 187500.00, -187500.02, 187500.00
421, -187500.02, -185300.72, -185486.86, -187500.02, 49141.71, 187500.00, -187500.02, 187500.00
422, -187500.02, -185256.64, -185500.83, -187500.02, 49096.52, 187500.00, -187500.02, 187500.00
423, -187500.02, -185296.05, -185518.41, -187500.02, 49052.15, 187500.00, -187500.02, 187500.00
424, -187500.02, -185307.00, -185605.34, -187500.02, 48990.33, 187500.00, -187500.02, 187500.00
425, -187500.02, -185275.86, -185607.00, -187500.02, 48910.98, 187500.00, -187500.02, 187500.00
426, -187500.02, -185243.67, -185537.78, -187500.02, 48830.49, 187500.00, -187500.02, 187500.00
427, -187500.02, -185230.08, -185472.20, -187500.02, 48755.50, 187500.00, -187500.02, 187500.00
428, -187500.02, -185307.53, -185411.02, -187500.02, 48671.66, 187500.00, -187500.02, 187500.00
429, -187500.02, -185301.08, -185333.34, -187500.02, 48584.44, 187500.00, -187500.02, 187500.00
430, -187500.02, -185266.08, -185190.19, -187500.02, 48514.75, 187500.00, -187500.02, 187500.00
431, -187500.02, -185216.77, -185140.50, -187500.02, 48465.20, 187500.00, -187500.02, 187500.00
432, -187500.02, -185274.20, -185147.66, -187500.02, 48410.25, 187500.00, -187500.02, 187500.00
433, -187500.02, -185222.91, -185161.27, -187500.02, 48354.71, 187500.00, -187500.02, 187500.00
434, -187500.02, -185234.89, -185173.02, -187500.02, 48304.29, 187500.00, -187500.02, 187500.00
435, -187500.02, -185236.45, -185182.13, -187500.02, 48262.29, 187500.00, -187500.02, 187500.00
436, -187500.02, -185192.42, -185190.03, -187500.02, 48211.75, 187500.00, -187500.02, 187500.00
437, -187500.02, -185203.22, -185200.56, -187500.02, 48154.08, 187500.00, -187500.02, 187500.00
438, -187500.02, -185195.02, -185216.67, -187500.02, 48103.66, 187500.00, -187500.02, 187500.00
439, -187500.02, -185138.47, -185232.78, -187500.02, 48062.42, 187500.00, -187500.02, 187500.00
440, -187500.02, -185205.70, -185240.45, -187500.02, 48015.59, 187500.00, -187500.02, 187500.00
441, -187500.02, -185213.08, -185245.34, -187500.02, 47961.07, 187500.00, -187500.02, 187500.00
442, -187500.02, -185193.30, -185251.70, -187500.02, 47908.35, 187500.00, -187500.02, 187500.00
443, -187500.02, -185139.36, -185263.59, -187500.02, 47864.85, 187500.00, -187500.02, 187500.00
444, -187500.02, -185190.36, -185274.75, -187500.02, 47819.01, 187500.00, -187500.02, 187500.00
445, -187500.02, -185201.61, -185285.52, -187500.02, 47761.07, 187500.00, -187500.02, 187500.00
446, -187500.02, -185147.39, -185296.72, -187500.02, 47709.30, 187500.00, -187500.02, 187500.00
447, -187500.02, -185120.42, -185304.45, -187500.02, 47665.47, 187500.00, -187500.02, 187500.00
448, -187500.02, -185188.69, -185315.77, -187500.02, 47623.18, 187500.00, -187500.02, 187500.00
449, -187500.02, -185174.30, -185324.92, -187500.02, 47571.68, 187500.00, -187500.02, 187500.00
450, -187500.02, -185147.31, -185332.36, -187500.02, 47520.25, 187500.00, -187500.02, 187500.00
451, -187500.02, -185141.38, -185340.02, -187500.02, 47475.68, 187500.00, -187500.02, 187500.00
452, -187500.02, -185136.44, -185349.91, -187500.02, 47434.91, 187500.00, -187500.02, 187500.00
453, -187500.02, -185164.42, -185398.59, -187500.02, 47377.74, 187500.00, -187500.02, 187500.00
454, -187500.02, -185153.02, -185471.28, -187500.02, 47303.60, 187500.00, -187500.02, 187500.00
455, -187500.02, -185138.59, -185429.16, -187500.02, 47227.89, 187500.00, -187500.02, 187500.00
456, -187500.02, -185125.67, -185365.00, -187500.02, 47158.43, 187500.00, -187500.02, 187500.00
457, -187500.02, -185125.55, -185290.56, -187500.02, 47078.18, 187500.00, -187500.02, 187500.00
458, -187500.02, -185135.22, -185220.88, -187500.02, 46992.77, 187500.00, -187500.02, 187500.00
459, -187500.02, -185088.33, -185106.91, -187500.02, 46918.50, 187500.00, -187500.02, 187500.00
460, -187500.02, -185069.67, -184987.34, -187500.02, 46870.42, 187500.00, -187500.02, 187500.00
461, -187500.02, -185071.19, -184988.75, -187500.02, 46825.23, 187500.00, -187500.02, 187500.00
462, -187500.02, -185047.97, -185003.61, -187500.02, 46775.14, 187500.00, -187500.02, 187500.00
463, -187500.02, -185049.17, -185011.08, -187500.02, 46729.07, 187500.00, -187500.02, 187500.00
464, -187500.02, -185018.92, -185024.05, -187500.02, 46691.32, 187500.00, -187500.02, 187500.00
465, -187500.02, -185105.39, -185035.98, -187500.02, 46649.48, 187500.00, -187500.02, 187500.00
466, -187500.02, -185065.44, -185045.06, -187500.02, 46596.81, 187500.00, -187500.02, 187500.00
467, -187500.02, -185018.33, -185052.61, -187500.02, 46549.38, 187500.00, -187500.02, 187500.00
468, -187500.02, -184977.48, -185061.23, -187500.02, 46509.84, 187500.00, -187500.02, 187500.00
469, -187500.02, -184999.95, -185074.83, -187500.02, 46468.58, 187500.00, -187500.02, 187500.00
470, -187500.02, -184998.81, -185088.58, -187500.02, 46416.70, 187500.00, -187500.02, 187500.00
471, -187500.02, -184993.67, -185101.67, -187500.02, 46369.00, 187500.00, -187500.02, 187500.00
472, -187500.02, -185027.64, -185109.34, -187500.02, 46328.48, 187500.00, -187500.02, 187500.00
473, -187500.02, -185075.45, -185114.06, -187500.02, 46289.99, 187500.00, -187500.02, 187500.00
474, -187500.02, -185095.44, -185122.94, -187500.02, 46240.26, 187500.00, -187500.02, 187500.00
475, -187500.02, -185006.05, -185135.00, -187500.02, 46190.95, 187500.00, -187500.02, 187500.00
476, -187500.02, -184982.61, -185145.75, -187500.02, 46150.00, 187500.00, -187500.02, 187500.00
477, -187500.02, -185031.02, -185157.75, -187500.02, 46112.16, 187500.00, -187500.02, 187500.00
478, -187500.02, -185052.19, -185168.81, -187500.02, 46064.51, 187500.00, -187500.02, 187500.00
479, -187500.02, -185019.48, -185183.55, -187500.02, 46016.56, 187500.00, -187500.02, 187500.00
480, -187500.02, -184951.09, -185195.34, -187500.02, 45976.31, 187500.00, -187500.02, 187500.00
481, -187500.02, -184971.23, -185198.92, -187500.02, 45942.07, 187500.00, -187500.02, 187500.00
482, -187500.02, -184966.20, -185219.48, -187500.02, 45898.68, 187500.00, -187500.02, 187500.00
483, -187500.02, -184990.27, -185301.92, -187500.02, 45839.45, 187500.00, -187500.02, 187500.00
484, -187500.02, -185036.72, -185290.28, -187500.02, 45768.55, 187500.00, -187500.02, 187500.00
485, -187500.02, -185019.63, -185232.13, -187500.02, 45703.57, 187500.00, -187500.02, 187500.00
486, -187500.02, -184981.83, -185164.17, -187500.02, 45632.92, 187500.00, -187500.02, 187500.00
487, -187500.02, -184974.92, -185096.05, -187500.02, 45556.68, 187500.00, -187500.02, 187500.00
488, -187500.02, -184983.20, -184993.63, -187500.02, 45488.30, 187500.00, -187500.02, 187500.00
489, -187500.02, -184984.78, -184859.88, -187500.02, 45441.61, 187500.00, -187500.02, 187500.00
490, -187500.02, -184954.00, -184848.50, -187500.02, 45403.30, 187500.00, -187500.02, 187500.00
491, -187500.02, -184949.56, -184859.11, -187500.02, 45356.54, 187500.00, -187500.02, 187500.00
492, -187500.02, -184908.88, -184873.42, -187500.02, 45312.93, 187500.00, -187500.02, 187500.00
493, -187500.02, -184885.64, -184890.25, -187500.02, 45276.09, 187500.00, -187500.02, 187500.00
494, -187500.02, -184907.70, -184896.95, -187500.02, 45238.10, 187500.00, -187500.02, 187500.00
495, -187500.02, -184912.83, -184902.14, -187500.02, 45188.61, 187500.00, -187500.02, 187500.00
496, -187500.02, -184897.36, -184914.08, -187500.02, 45142.14, 187500.00, -187500.02, 187500.00
497, -187500.02, -184907.89, -184926.75, -187500.02, 45107.07, 187500.00, -187500.02, 187500.00
498, -187500.02, -184915.50, -184934.86, -187500.02, 45075.09, 187500.00, -187500.02, 187500.00
499, -187500.02, -184884.34, -184939.25, -187500.02, 45027.99, 187500.00, -187500.02, 187500.00
500, -187500.02, -184852.36, -184952.83, -187500.02, 44983.40, 187500.00, -187500.02, 187500.00
501, -187500.02, -184846.58, -184963.94, -187500.02, 44945.09, 187500.00, -187500.02, 187500.00
502, -187500.02, -184884.33, -184971.98, -187500.02, 44913.04, 187500.00, -187500.02, 187500.00
503, -187500.02, -184879.00, -184978.88, -187500.02, 44871.93, 187500.00, -187500.02, 187500.00
504, -187500.02, -184889.41, -184992.13, -187500.02, 44828.30, 187500.00, -187500.02, 187500.00
505, -187500.02, -184872.56, -185006.56, -187500.02, 44792.85, 187500.00, -187500.02, 187500.00
506, -187500.02, -184907.53, -185019.11, -187500.02, 44761.73, 187500.00, -187500.02, 187500.00
507, -187500.02, -184883.59, -185026.84, -187500.02, 44721.21, 187500.00, -187500.02, 187500.00
508, -187500.02, -184819.23, -185033.91, -187500.02, 44674.96, 187500.00, -187500.02, 187500.00
509, -187500.02, -184847.22, -185046.75, -187500.02, 44636.28, 187500.00, -187500.02, 187500.00
510, -187500.02, -184794.53, -185054.73, -187500.02, 44605.90, 187500.00, -187500.02, 187500.00
511, -187500.02, -184832.11, -185060.80, -187500.02, 44568.84, 187500.00, -187500.02, 187500.00
512, -187500.02, -184821.22, -185091.03, -187500.02, 44523.24, 187500.00, -187500.02, 187500.00
513, -187500.02, -184802.25, -185175.53, -187500.02, 44470.92, 187500.00, -187500.02, 187500.00
514, -187500.02, -184784.88, -185148.34, -187500.02, 44411.06, 187500.00, -187500.02, 187500.00
515, -187500.02, -184800.13, -185078.56, -187500.02, 44346.04, 187500.00, -187500.02, 187500.00
516, -187500.02, -184780.66, -185008.73, -187500.02, 44269.35, 187500.00, -187500.02, 187500.00
517, -187500.02, -184745.00, -184946.64, -187500.02, 44194.27, 187500.00, -187500.02, 187500.00
518, -187500.02, -184762.58, -184861.58, -187500.02, 44132.36, 187500.00, -187500.02, 187500.00
519, -187500.02, -184805.42, -184717.92, -187500.02, 44085.48, 187500.00, -187500.02, 187500.00
520, -187500.02, -184816.91, -184695.83, -187500.02, 44041.43, 187500.00, -187500.02, 187500.00
521, -187500.02, -184780.88, -184708.39, -187500.02, 44003.25, 187500.00, -187500.02, 187500.00
522, -187500.02, -184801.77, -184710.55, -187500.02, 43971.13, 187500.00, -187500.02, 187500.00
523, -187500.02, -184766.31, -184715.45, -187500.02, 43940.13, 187500.00, -187500.02, 187500.00
524, -187500.02, -184733.05, -184725.78, -187500.02, 43899.34, 187500.00, -187500.02, 187500.00
525, -187500.02, -184773.45, -184741.36, -187500.02, 43858.57, 187500.00, -187500.02, 187500.00
526, -187500.02, -184759.98, -184751.91, -187500.02, 43825.36, 187500.00, -187500.02, 187500.00
527, -187500.02, -184759.58, -184757.66, -187500.02, 43796.57, 187500.00, -187500.02, 187500.00
528, -187500.02, -184760.23, -184768.31, -187500.02, 43758.30, 187500.00, -187500.02, 187500.00
529, -187500.02, -184750.17, -184775.73, -187500.02, 43716.73, 187500.00, -187500.02, 187500.00
530, -187500.02, -184682.27, -184783.14, -187500.02, 43681.86, 187500.00, -187500.02, 187500.00
531, -187500.02, -184679.58, -184793.36, -187500.02, 43653.83, 187500.00, -187500.02, 187500.00
532, -187500.02, -184731.78, -184805.80, -187500.02, 43616.77, 187500.00, -187500.02, 187500.00
533, -187500.02, -184738.66, -184819.30, -187500.02, 43575.30, 187500.00, -187500.02, 187500.00
534, -187500.02, -184693.03, -184833.30, -187500.02, 43540.86, 187500.00, -187500.02, 187500.00
535, -187500.02, -184711.95, -184841.70, -187500.02, 43510.26, 187500.00, -187500.02, 187500.00
536, -187500.02, -184755.78, -184843.47, -187500.02, 43473.23, 187500.00, -187500.02, 187500.00
537, -187500.02, -184685.73, -184850.03, -187500.02, 43432.48, 187500.00, -187500.02, 187500.00
538, -187500.02, -184703.39, -184863.11, -187500.02, 43398.21, 187500.00, -187500.02, 187500.00
539, -187500.02, -184695.67, -184873.86, -187500.02, 43369.18, 187500.00, -187500.02, 187500.00
540, -187500.02, -184740.31, -184882.45, -187500.02, 43335.83, 187500.00, -187500.02, 187500.00
541, -187500.02, -184705.84, -184892.27, -187500.02, 43291.17, 187500.00, -187500.02, 187500.00
542, -187500.02, -184692.33, -184935.09, -187500.02, 43252.50, 187500.00, -187500.02, 187500.00
543, -187500.02, -184621.72, -185013.97, -187500.02, 43206.84, 187500.00, -187500.02, 187500.00
544, -187500.02, -184691.27, -184962.67, -187500.02, 43147.98, 187500.00, -187500.02, 187500.00
545, -187500.02, -184707.25, -184887.14, -187500.02, 43079.12, 187500.00, -187500.02, 187500.00
546, -187500.02, -184663.80, -184825.27, -187500.02, 43011.97, 187500.00, -187500.02, 187500.00
547, -187500.02, -184656.83, -184753.23, -187500.02, 42949.75, 187500.00, -187500.02, 187500.00
548, -187500.02, -184651.27, -184617.89, -187500.02, 42900.51, 187500.00, -187500.02, 187500.00
549, -187500.02, -184660.72, -184543.23, -187500.02, 42856.45, 187500.00, -187500.02, 187500.00
550, -187500.02, -184640.25, -184551.91, -187500.02, 42817.45, 187500.00, -187500.02, 187500.00
551, -187500.02, -184638.19, -184567.69, -187500.02, 42788.46, 187500.00, -187500.02, 187500.00
552, -187500.02, -184608.69, -184582.44, -187500.02, 42764.68, 187500.00, -187500.02, 187500.00
553, -187500.02, -184588.05, -184586.64, -187500.02, 42730.70, 187500.00, -187500.02, 187500.00
554, -187500.02, -184572.89, -184592.13, -187500.02, 42688.61, 187500.00, -187500.02, 187500.00
555, -187500.02, -184578.70, -184601.89, -187500.02, 42655.11, 187500.00, -187500.02, 187500.00
556, -187500.02, -184560.72, -184607.05, -187500.02, 42628.60, 187500.00, -187500.02, 187500.00
557, -187500.02, -184588.14, -184616.97, -187500.02, 42595.25, 187500.00, -187500.02, 187500.00
558, -187500.02, -184621.64, -184631.42, -187500.02, 42555.33, 187500.00, -187500.02, 187500.00
559, -187500.02, -184611.64, -184646.19, -187500.02, 42519.50, 187500.00, -187500.02, 187500.00
560, -187500.02, -184578.55, -184654.44, -187500.02, 42492.65, 187500.00, -187500.02, 187500.00
561, -187500.02, -184610.30, -184657.97, -187500.02, 42464.16, 187500.00, -187500.02, 187500.00
562, -187500.02, -184610.47, -184671.27, -187500.02, 42425.73, 187500.00, -187500.02, 187500.00
563, -187500.02, -184524.17, -184682.69, -187500.02, 42391.67, 187500.00, -187500.02, 187500.00
564, -187500.02, -184549.23, -184686.69, -187500.02, 42365.07, 187500.00, -187500.02, 187500.00
565, -187500.02, -184595.81, -184698.89, -187500.02, 42337.22, 187500.00, -187500.02, 187500.00
566, -187500.02, -184589.33, -184709.64, -187500.02, 42299.02, 187500.00, -187500.02, 187500.00
567, -187500.02, -184564.73, -184713.16, -187500.02, 42261.00, 187500.00, -187500.02, 187500.00
568, -187500.02, -184539.03, -184722.23, -187500.02, 42233.24, 187500.00, -187500.02, 187500.00
569, -187500.02, -184527.56, -184731.84, -187500.02, 42210.69, 187500.00, -187500.02, 187500.00
570, -187500.02, -184555.98, -184740.73, -187500.02, 42174.66, 187500.00, -187500.02, 187500.00
571, -187500.02, -184544.95, -184753.28, -187500.02, 42140.23, 187500.00, -187500.02, 187500.00
572, -187500.02, -184524.86, -184810.86, -187500.02, 42110.33, 187500.00, -187500.02, 187500.00
573, -187500.02, -184520.64, -184871.92, -187500.02, 42066.23, 187500.00, -187500.02, 187500.00
574, -187500.02, -184522.08, -184816.00, -187500.02, 42002.52, 187500.00, -187500.02, 187500.00
575, -187500.02, -184536.70, -184746.19, -187500.02, 41935.18, 187500.00, -187500.02, 187500.00
576, -187500.02, -184490.11, -184679.69, -187500.02, 41874.85, 187500.00, -187500.02, 187500.00
577, -187500.02, -184440.13, -184610.25, -187500.02, 41823.49, 187500.00, -187500.02, 187500.00
578, -187500.02, -184487.58, -184493.44, -187500.02, 41768.08, 187500.00, -187500.02, 187500.00
579, -187500.02, -184489.53, -184379.95, -187500.02, 41723.62, 187500.00, -187500.02, 187500.00
580, -187500.02, -184536.59, -184383.16, -187500.02, 41693.73, 187500.00, -187500.02, 187500.00
581, -187500.02, -184495.22, -184390.59, -187500.02, 41669.30, 187500.00, -187500.02, 187500.00
582, -187500.02, -184493.50, -184403.41, -187500.02, 41643.22, 187500.00, -187500.02, 187500.00
583, -187500.02, -184522.16, -184412.88, -187500.02, 41607.35, 187500.00, -187500.02, 187500.00
584, -187500.02, -184485.02, -184420.08, -187500.02, 41575.76, 187500.00, -187500.02, 187500.00
585, -187500.02, -184488.72, -184422.69, -187500.02, 41554.77, 187500.00, -187500.02, 187500.00
586, -187500.02, -184443.39, -184435.45, -187500.02, 41530.46, 187500.00, -187500.02, 187500.00
587, -187500.02, -184397.44, -184444.67, -187500.02, 41495.21, 187500.00, -187500.02, 187500.00
588, -187500.02, -184398.08, -184454.55, -187500.02, 41464.18, 187500.00, -187500.02, 187500.00
589, -187500.02, -184353.16, -184469.88, -187500.02, 41438.99, 187500.00, -187500.02, 187500.00
590, -187500.02, -184390.63, -184481.33, -187500.02, 41416.35, 187500.00, -187500.02, 187500.00
591, -187500.02, -184375.75, -184488.47, -187500.02, 41381.91, 187500.00, -187500.02, 187500.00
592, -187500.02, -184363.81, -184487.72, -187500.02, 41347.80, 187500.00, -187500.02, 187500.00
593, -187500.02, -184384.58, -184497.63, -187500.02, 41325.56, 187500.00, -187500.02, 187500.00
594, -187500.02, -184396.20, -184510.67, -187500.02, 41303.45, 187500.00, -187500.02, 187500.00
595, -187500.02, -184388.41, -184520.34, -187500.02, 41267.89, 187500.00, -187500.02, 187500.00
596, -187500.02, -184358.95, -184527.72, -187500.02, 41231.73, 187500.00, -187500.02, 187500.00
597, -187500.02, -184386.47, -184534.56, -187500.02, 41203.85, 187500.00, -187500.02, 187500.00
598, -187500.02, -184409.78, -184544.36, -187500.02, 41183.63, 187500.00, -187500.02, 187500.00
599, -187500.02, -184380.06, -184553.78, -187500.02, 41155.39, 187500.00, -187500.02, 187500.00
600, -187500.02, -184384.39, -184565.14, -187500.02, 41125.04, 187500.00, -187500.02, 187500.00
601, -187500.02, -184352.88, -184573.77, -187500.02, 41100.83, 187500.00, -187500.02, 187500.00
602, -187500.02, -184303.00, -184582.42, -187500.02, 41081.57, 187500.00, -187500.02, 187500.00
603, -187500.02, -184360.06, -184591.25, -187500.02, 41053.47, 187500.00, -187500.02, 187500.00
604, -187500.02, -184350.97, -184656.50, -187500.02, 41014.20, 187500.00, -187500.02, 187500.00
605, -187500.02, -184310.38, -184701.91, -187500.02, 40962.14, 187500.00, -187500.02, 187500.00
606, -187500.02, -184287.02, -184637.97, -187500.02, 40911.38, 187500.00, -187500.02, 187500.00
607, -187500.02, -184323.59, -184570.22, -187500.02, 40857.96, 187500.00, -187500.02, 187500.00
608, -187500.02, -184343.33, -184501.63, -187500.02, 40794.39, 187500.00, -187500.02, 187500.00
609, -187500.02, -184358.80, -184428.95, -187500.02, 40735.92, 187500.00, -187500.02, 187500.00
610, -187500.02, -184313.47, -184293.50, -187500.02, 40695.26, 187500.00, -187500.02, 187500.00
611, -187500.02, -184316.38, -184214.83, -187500.02, 40668.46, 187500.00, -187500.02, 187500.00
612, -187500.02, -184295.09, -184229.47, -187500.02, 40636.50, 187500.00, -187500.02, 187500.00
613, -187500.02, -184305.14, -184242.61, -187500.02, 40608.02, 187500.00, -187500.02, 187500.00
614, -187500.02, -184303.36, -184250.14, -187500.02, 40589.14, 187500.00, -187500.02, 187500.00
615, -187500.02, -184313.69, -184259.84, -187500.02, 40568.62, 187500.00, -187500.02, 187500.00
616, -187500.02, -184307.47, -184263.02, -187500.02, 40533.70, 187500.00, -187500.02, 187500.00
617, -187500.02, -184278.64, -184269.27, -187500.02, 40501.07, 187500.00, -187500.02, 187500.00
618, -187500.02, -184219.47, -184280.11, -187500.02, 40479.52, 187500.00, -187500.02, 187500.00
619, -187500.02, -184226.11, -184291.17, -187500.02, 40463.74, 187500.00, -187500.02, 187500.00
620, -187500.02, -184276.30, -184303.30, -187500.02, 40435.85, 187500.00, -187500.02, 187500.00
621, -187500.02, -184283.89, -184314.80, -187500.02, 40405.07, 187500.00, -187500.02, 187500.00
622, -187500.02, -184269.31, -184325.95, -187500.02, 40383.52, 187500.00, -187500.02, 187500.00
623, -187500.02, -184255.28, -184333.47, -187500.02, 40367.76, 187500.00, -187500.02, 187500.00
624, -187500.02, -184273.91, -184336.95, -187500.02, 40342.62, 187500.00, -187500.02, 187500.00
625, -187500.02, -184253.14, -184344.19, -187500.02, 40313.56, 187500.00, -187500.02, 187500.00
626, -187500.02, -184245.52, -184354.88, -187500.02, 40289.64, 187500.00, -187500.02, 187500.00
627, -187500.02, -184218.41, -184362.70, -187500.02, 40271.81, 187500.00, -187500.02, 187500.00
628, -187500.02, -184184.27, -184372.30, -187500.02, 40245.68, 187500.00, -187500.02, 187500.00
629, -187500.02, -184223.89, -184381.86, -187500.02, 40211.64, 187500.00, -187500.02, 187500.00
630, -187500.02, -184190.23, -184392.92, -187500.02, 40183.45, 187500.00, -187500.02, 187500.00
631, -187500.02, -184158.30, -184401.80, -187500.02, 40165.17, 187500.00, -187500.02, 187500.00
632, -187500.02, -184159.38, -184411.58, -187500.02, 40144.29, 187500.00, -187500.02, 187500.00
633, -187500.02, -184198.19, -184419.14, -187500.02, 40115.37, 187500.00, -187500.02, 187500.00
634, -187500.02, -184153.20, -184424.50, -187500.02, 40089.04, 187500.00, -187500.02, 187500.00
635, -187500.02, -184158.94, -184432.81, -187500.02, 40070.29, 187500.00, -187500.02, 187500.00
636, -187500.02, -184156.38, -184513.06, -187500.02, 40043.84, 187500.00, -187500.02, 187500.00
637, -187500.02, -184147.14, -184532.06, -187500.02, 39987.76, 187500.00, -187500.02, 187500.00
638, -187500.02, -184150.89, -184469.19, -187500.02, 39929.82, 187500.00, -187500.02, 187500.00
639, -187500.02, -184172.83, -184404.61, -187500.02, 39882.06, 187500.00, -187500.02, 187500.00
640, -187500.02, -184175.03, -184336.86, -187500.02, 39835.28, 187500.00, -187500.02, 187500.00
641, -187500.02, -184210.06, -184257.38, -187500.02, 39779.31, 187500.00, -187500.02, 187500.00
642, -187500.02, -184201.61, -184115.52, -187500.02, 39732.88, 187500.00, -187500.02, 187500.00
643, -187500.02, -184194.30, -184066.45, -187500.02, 39708.72, 187500.00, -187500.02, 187500.00
644, -187500.02, -184227.55, -184073.73, -187500.02, 39689.59, 187500.00, -187500.02, 187500.00
645, -187500.02, -184196.47, -184083.91, -187500.02, 39661.45, 187500.00, -187500.02, 187500.00
646, -187500.02, -184163.97, -184087.59, -187500.02, 39634.43, 187500.00, -187500.02, 187500.00
647, -187500.02, -184126.09, -184095.95, -187500.02, 39616.03, 187500.00, -187500.02, 187500.00
648, -187500.02, -184114.73, -184109.88, -187500.02, 39605.66, 187500.00, -187500.02, 187500.00
649, -187500.02, -184143.20, -184116.47, -187500.02, 39586.75, 187500.00, -187500.02, 187500.00
650, -187500.02, -184149.41, -184125.06, -187500.02, 39561.20, 187500.00, -187500.02, 187500.00
651, -187500.02, -184102.02, -184131.67, -187500.02, 39540.37, 187500.00, -187500.02, 187500.00
652, -187500.02, -184113.03, -184141.80, -187500.02, 39526.04, 187500.00, -187500.02, 187500.00
653, -187500.02, -184097.56, -184154.05, -187500.02, 39505.16, 187500.00, -187500.02, 187500.00
654, -187500.02, -184054.36, -184161.22, -187500.02, 39477.36, 187500.00, -187500.02, 187500.00
655, -187500.02, -184041.78, -184169.41, -187500.02, 39456.97, 187500.00, -187500.02, 187500.00
656, -187500.02, -184048.89, -184174.39, -187500.02, 39444.41, 187500.00, -187500.02, 187500.00
657, -187500.02, -184109.09, -184176.16, -187500.02, 39427.09, 187500.00, -187500.02, 187500.00
658, -187500.02, -184148.66, -184184.72, -187500.02, 39399.84, 187500.00, -187500.02, 187500.00
659, -187500.02, -184118.64, -184194.39, -187500.02, 39378.00, 187500.00, -187500.02, 187500.00
660, -187500.02, -184059.95, -184198.69, -187500.02, 39361.04, 187500.00, -187500.02, 187500.00
661, -187500.02, -184069.38, -184212.67, -187500.02, 39343.23, 187500.00, -187500.02, 187500.00
662, -187500.02, -184055.25, -184221.31, -187500.02, 39316.79, 187500.00, -187500.02, 187500.00
663, -187500.02, -184045.64, -184234.73, -187500.02, 39293.05, 187500.00, -187500.02, 187500.00
664, -187500.02, -184040.48, -184245.38, -187500.02, 39277.45, 187500.00, -187500.02, 187500.00
665, -187500.02, -184004.73, -184252.39, -187500.02, 39264.35, 187500.00, -187500.02, 187500.00
666, -187500.02, -184068.00, -184260.33, -187500.02, 39239.36, 187500.00, -187500.02, 187500.00
667, -187500.02, -184092.42, -184268.22, -187500.02, 39213.59, 187500.00, -187500.02, 187500.00
668, -187500.02, -184044.39, -184325.08, -187500.02, 39194.03, 187500.00, -187500.02, 187500.00
669, -187500.02, -184035.08, -184379.98, -187500.02, 39161.91, 187500.00, -187500.02, 187500.00
670, -187500.02, -184059.77, -184327.14, -187500.02, 39111.46, 187500.00, -187500.02, 187500.00
671, -187500.02, -183995.08, -184262.09, -187500.02, 39055.74, 187500.00, -187500.02, 187500.00
672, -187500.02, -184010.86, -184196.72, -187500.02, 39007.68, 187500.00, -187500.02, 187500.00
673, -187500.02, -184000.47, -184125.89, -187500.02, 38969.46, 187500.00, -187500.02, 187500.00
674, -187500.02, -184000.25, -183989.86, -187500.02, 38926.43, 187500.00, -187500.02, 187500.00
675, -187500.02, -184045.64, -183909.08, -187500.02, 38894.80, 187500.00, -187500.02, 187500.00
676, -187500.02, -183998.06, -183914.86, -187500.02, 38875.47, 187500.00, -187500.02, 187500.00
677, -187500.02, -183955.66, -183926.23, -187500.02, 38860.54, 187500.00, -187500.02, 187500.00
678, -187500.02, -183972.03, -183933.06, -187500.02, 38838.82, 187500.00, -187500.02, 187500.00
679, -187500.02, -183977.34, -183944.28, -187500.02, 38810.76, 187500.00, -187500.02, 187500.00
680, -187500.02, -183956.66, -183959.03, -187500.02, 38790.09, 187500.00, -187500.02, 187500.00
681, -187500.02, -183923.25, -183967.61, -187500.02, 38778.89, 187500.00, -187500.02, 187500.00
682, -187500.02, -183945.55, -183974.45, -187500.02, 38761.68, 187500.00, -187500.02, 187500.00
683, -187500.02, -183952.70, -183982.44, -187500.02, 38736.00, 187500.00, -187500.02, 187500.00
684, -187500.02, -183954.50, -183992.58, -187500.02, 38713.80, 187500.00, -187500.02, 187500.00
685, -187500.02, -183890.52, -184004.20, -187500.02, 38697.64, 187500.00, -187500.02, 187500.00
686, -187500.02, -183904.14, -184009.30, -187500.02, 38683.49, 187500.00, -187500.02, 187500.00
687, -187500.02, -183960.30, -184021.70, -187500.02, 38661.32, 187500.00, -187500.02, 187500.00
688, -187500.02, -183928.56, -184032.34, -187500.02, 38639.91, 187500.00, -187500.02, 187500.00
689, -187500.02, -183902.17, -184038.33, -187500.02, 38624.64, 187500.00, -187500.02, 187500.00
690, -187500.02, -183928.67, -184047.44, -187500.02, 38611.16, 187500.00, -187500.02, 187500.00
691, -187500.02, -183947.50, -184053.89, -187500.02, 38587.85, 187500.00, -187500.02, 187500.00
692, -187500.02, -183879.44, -184058.11, -187500.02, 38563.71, 187500.00, -187500.02, 187500.00
693, -187500.02, -183930.89, -184073.19, -187500.02, 38547.50, 187500.00, -187500.02, 187500.00
694, -187500.02, -183892.44, -184088.84, -187500.02, 38539.03, 187500.00, -187500.02, 187500.00
695, -187500.02, -183920.73, -184095.52, -187500.02, 38519.23, 187500.00, -187500.02, 187500.00
696, -187500.02, -183883.17, -184101.64, -187500.02, 38495.02, 187500.00, -187500.02, 187500.00
697, -187500.02, -183834.58, -184110.34, -187500.02, 38480.38, 187500.00, -187500.02, 187500.00
698, -187500.02, -183872.63, -184144.11, -187500.02, 38470.03, 187500.00, -187500.02, 187500.00
699, -187500.02, -183871.97, -184228.95, -187500.02, 38437.58, 187500.00, -187500.02, 187500.00
700, -187500.02, -183885.16, -184192.50, -187500.02, 38383.93, 187500.00, -187500.02, 187500.00
701, -187500.02, -183839.47, -184126.58, -187500.02, 38337.24, 187500.00, -187500.02, 187500.00
702, -187500.02, -183780.00, -184058.55, -187500.02, 38299.91, 187500.00, -187500.02, 187500.00
703, -187500.02, -183784.78, -183989.08, -187500.02, 38256.46, 187500.00, -187500.02, 187500.00
704, -187500.02, -183878.42, -183868.89, -187500.02, 38208.76, 187500.00, -187500.02, 187500.00
705, -187500.02, -183842.63, -183762.42, -187500.02, 38184.02, 187500.00, -187500.02, 187500.00
706, -187500.02, -183820.97, -183766.25, -187500.02, 38173.52, 187500.00, -187500.02, 187500.00
707, -187500.02, -183811.17, -183781.61, -187500.02, 38162.00, 187500.00, -187500.02, 187500.00
708, -187500.02, -183834.44, -183788.38, -187500.02, 38139.34, 187500.00, -187500.02, 187500.00
709, -187500.02, -183810.77, -183797.98, -187500.02, 38117.97, 187500.00, -187500.02, 187500.00
710, -187500.02, -183804.80, -183807.42, -187500.02, 38105.36, 187500.00, -187500.02, 187500.00
711, -187500.02, -183859.97, -183815.98, -187500.02, 38093.96, 187500.00, -187500.02, 187500.00
712, -187500.02, -183840.39, -183825.09, -187500.02, 38072.26, 187500.00, -187500.02, 187500.00
713, -187500.02, -183810.14, -183830.75, -187500.02, 38050.47, 187500.00, -187500.02, 187500.00
714, -187500.02, -183788.78, -183840.88, -187500.02, 38037.55, 187500.00, -187500.02, 187500.00
715, -187500.02, -183759.56, -183852.08, -187500.02, 38029.46, 187500.00, -187500.02, 187500.00
716, -187500.02, -183782.08, -183856.92, -187500.02, 38006.82, 187500.00, -187500.02, 187500.00
717, -187500.02, -183770.58, -183872.08, -187500.02, 37982.32, 187500.00, -187500.02, 187500.00
718, -187500.02, -183768.39, -183883.30, -187500.02, 37965.84, 187500.00, -187500.02, 187500.00
719, -187500.02, -183765.94, -183889.56, -187500.02, 37956.59, 187500.00, -187500.02, 187500.00
720, -187500.02, -183757.95, -183896.31, -187500.02, 37937.68, 187500.00, -187500.02, 187500.00
721, -187500.02, -183751.27, -183904.36, -187500.02, 37916.38, 187500.00, -187500.02, 187500.00
722, -187500.02, -183739.06, -183919.09, -187500.02, 37902.59, 187500.00, -187500.02, 187500.00
723, -187500.02, -183742.31, -183926.89, -187500.02, 37894.18, 187500.00, -187500.02, 187500.00
724, -187500.02, -183744.56, -183934.58, -187500.02, 37878.18, 187500.00, -187500.02, 187500.00
725, -187500.02, -183724.89, -183937.80, -187500.02, 37853.95, 187500.00, -187500.02, 187500.00
726, -187500.02, -183726.13, -183949.08, -187500.02, 37837.21, 187500.00, -187500.02, 187500.00
727, -187500.02, -183766.02, -183960.91, -187500.02, 37828.09, 187500.00, -187500.02, 187500.00
728, -187500.02, -183791.34, -183973.05, -187500.02, 37815.60, 187500.00, -187500.02, 187500.00
729, -187500.02, -183771.14, -183980.94, -187500.02, 37794.86, 187500.00, -187500.02, 187500.00
730, -187500.02, -183708.59, -184016.47, -187500.02, 37777.26, 187500.00, -187500.02, 187500.00
731, -187500.02, -183689.52, -184095.80, -187500.02, 37755.18, 187500.00, -187500.02, 187500.00
732, -187500.02, -183696.28, -184059.69, -187500.02, 37718.41, 187500.00, -187500.02, 187500.00
733, -187500.02, -183740.16, -183993.72, -187500.02, 37665.32, 187500.00, -187500.02, 187500.00
734, -187500.02, -183691.75, -183926.23, -187500.02, 37616.38, 187500.00, -187500.02, 187500.00
735, -187500.02, -183685.78, -183866.92, -187500.02, 37580.19, 187500.00, -187500.02, 187500.00
736, -187500.02, -183656.14, -183779.59, -187500.02, 37546.35, 187500.00, -187500.02, 187500.00
737, -187500.02, -183719.75, -183634.33, -187500.02, 37513.29, 187500.00, -187500.02, 187500.00
738, -187500.02, -183693.05, -183612.22, -187500.02, 37492.46, 187500.00, -187500.02, 187500.00
739, -187500.02, -183669.11, -183617.03, -187500.02, 37478.78, 187500.00, -187500.02, 187500.00
740, -187500.02, -183630.61, -183620.73, -187500.02, 37469.75, 187500.00, -187500.02, 187500.00
741, -187500.02, -183662.94, -183634.33, -187500.02, 37452.07, 187500.00, -187500.02, 187500.00
742, -187500.02, -183645.88, -183648.03, -187500.02, 37435.24, 187500.00, -187500.02, 187500.00
743, -187500.02, -183635.89, -183658.44, -187500.02, 37424.20, 187500.00, -187500.02, 187500.00
744, -187500.02, -183662.92, -183670.02, -187500.02, 37417.42, 187500.00, -187500.02, 187500.00
745, -187500.02, -183677.44, -183672.91, -187500.02, 37402.58, 187500.00, -187500.02, 187500.00
746, -187500.02, -183647.48, -183679.56, -187500.02, 37383.58, 187500.00, -187500.02, 187500.00
747, -187500.02, -183645.77, -183686.55, -187500.02, 37371.47, 187500.00, -187500.02, 187500.00
748, -187500.02, -183636.30, -183694.75, -187500.02, 37365.30, 187500.00, -187500.02, 187500.00
749, -187500.02, -183648.83, -183705.42, -187500.02, 37352.31, 187500.00, -187500.02, 187500.00
750, -187500.02, -183615.34, -183710.95, -187500.02, 37332.35, 187500.00, -187500.02, 187500.00
751, -187500.02, -183564.23, -183724.73, -187500.02, 37318.54, 187500.00, -187500.02, 187500.00
752, -187500.02, -183597.88, -183731.63, -187500.02, 37312.17, 187500.00, -187500.02, 187500.00
753, -187500.02, -183604.89, -183731.31, -187500.02, 37301.28, 187500.00, -187500.02, 187500.00
754, -187500.02, -183571.00, -183735.48, -187500.02, 37280.38, 187500.00, -187500.02, 187500.00
755, -187500.02, -183607.97, -183745.08, -187500.02, 37264.85, 187500.00, -187500.02, 187500.00
756, -187500.02, -183596.59, -183759.20, -187500.02, 37256.89, 187500.00, -187500.02, 187500.00
757, -187500.02, -183564.56, -183770.05, -187500.02, 37249.29, 187500.00, -187500.02, 187500.00
758, -187500.02, -183576.92, -183782.03, -187500.02, 37234.63, 187500.00, -187500.02, 187500.00
759, -187500.02, -183568.97, -183795.28, -187500.02, 37219.59, 187500.00, -187500.02, 187500.00
760, -187500.02, -183594.70, -183804.52, -187500.02, 37210.24, 187500.00, -187500.02, 187500.00
761, -187500.02, -183635.25, -183811.28, -187500.02, 37204.23, 187500.00, -187500.02, 187500.00
762, -187500.02, -183612.27, -183832.72, -187500.02, 37187.54, 187500.00, -187500.02, 187500.00
763, -187500.02, -183565.45, -183916.22, -187500.02, 37157.79, 187500.00, -187500.02, 187500.00
764, -187500.02, -183557.80, -183905.34, -187500.02, 37120.57, 187500.00, -187500.02, 187500.00
765, -187500.02, -183548.50, -183840.50, -187500.02, 37084.58, 187500.00, -187500.02, 187500.00
766, -187500.02, -183584.58, -183772.45, -187500.02, 37040.21, 187500.00, -187500.02, 187500.00
767, -187500.02, -183512.11, -183707.11, -187500.02, 36993.59, 187500.00, -187500.02, 187500.00
768, -187500.02, -183472.88, -183607.33, -187500.02, 36953.45, 187500.00, -187500.02, 187500.00
769, -187500.02, -183494.36, -183468.44, -187500.02, 36936.73, 187500.00, -187500.02, 187500.00
770, -187500.02, -183548.41, -183453.64, -187500.02, 36926.73, 187500.00, -187500.02, 187500.00
771, -187500.02, -183532.38, -183461.80, -187500.02, 36910.02, 187500.00, -187500.02, 187500.00
772, -187500.02, -183508.86, -183468.14, -187500.02, 36896.11, 187500.00, -187500.02, 187500.00
773, -187500.02, -183508.00, -183479.52, -187500.02, 36890.91, 187500.00, -187500.02, 187500.00
774, -187500.02, -183512.67, -183490.41, -187500.02, 36882.57, 187500.00, -187500.02, 187500.00
775, -187500.02, -183500.69, -183498.34, -187500.02, 36865.13, 187500.00, -187500.02, 187500.00
776, -187500.02, -183478.00, -183506.81, -187500.02, 36852.37, 187500.00, -187500.02, 187500.00
777, -187500.02, -183451.13, -183514.52, -187500.02, 36848.32, 187500.00, -187500.02, 187500.00
778, -187500.02, -183495.55, -183519.06, -187500.02, 36841.08, 187500.00, -187500.02, 187500.00
779, -187500.02, -183478.52, -183525.03, -187500.02, 36824.68, 187500.00, -187500.02, 187500.00
780, -187500.02, -183461.75, -183541.25, -187500.02, 36812.61, 187500.00, -187500.02, 187500.00
781, -187500.02, -183430.36, -183554.69, -187500.02, 36807.33, 187500.00, -187500.02, 187500.00
782, -187500.02, -183485.94, -183561.03, -187500.02, 36802.21, 187500.00, -187500.02, 187500.00
783, -187500.02, -183473.53, -183571.08, -187500.02, 36785.92, 187500.00, -187500.02, 187500.00
784, -187500.02, -183433.42, -183583.50, -187500.02, 36769.58, 187500.00, -187500.02, 187500.00
785, -187500.02, -183387.61, -183592.59, -187500.02, 36763.39, 187500.00, -187500.02, 187500.00
786, -187500.02, -183416.42, -183601.52, -187500.02, 36759.79, 187500.00, -187500.02, 187500.00
787, -187500.02, -183495.70, -183608.27, -187500.02, 36743.74, 187500.00, -187500.02, 187500.00
788, -187500.02, -183470.78, -183617.11, -187500.02, 36726.20, 187500.00, -187500.02, 187500.00
789, -187500.02, -183424.78, -183629.88, -187500.02, 36715.45, 187500.00, -187500.02, 187500.00
790, -187500.02, -183445.59, -183642.23, -187500.02, 36712.56, 187500.00, -187500.02, 187500.00
791, -187500.02, -183424.91, -183652.45, -187500.02, 36701.88, 187500.00, -187500.02, 187500.00
792, -187500.02, -183480.84, -183660.83, -187500.02, 36687.04, 187500.00, -187500.02, 187500.00
793, -187500.02, -183386.77, -183665.66, -187500.02, 36678.18, 187500.00, -187500.02, 187500.00
794, -187500.02, -183404.02, -183671.47, -187500.02, 36672.93, 187500.00, -187500.02, 187500.00
795, -187500.02, -183413.64, -183730.42, -187500.02, 36655.38, 187500.00, -187500.02, 187500.00
796, -187500.02, -183467.50, -183782.16, -187500.02, 36616.36, 187500.00, -187500.02, 187500.00
797, -187500.02, -183443.17, -183733.84, -187500.02, 36575.34, 187500.00, -187500.02, 187500.00
798, -187500.02, -183398.72, -183667.00, -187500.02, 36541.68, 187500.00, -187500.02, 187500.00
799, -187500.02, -183427.50, -183596.95, -187500.02, 36502.88, 187500.00, -187500.02, 187500.00
800, -187500.02, -183386.64, -183531.75, -187500.02, 36456.50, 187500.00, -187500.02, 187500.00
801, -187500.02, -183394.69, -183411.61, -187500.02, 36419.04, 187500.00, -187500.02, 187500.00
802, -187500.02, -183323.23, -183299.72, -187500.02, 36405.25, 187500.00, -187500.02, 187500.00
803, -187500.02, -183331.70, -183296.72, -187500.02, 36399.46, 187500.00, -187500.02, 187500.00
804, -187500.02, -183374.58, -183306.88, -187500.02, 36386.27, 187500.00, -187500.02, 187500.00
805, -187500.02, -183394.83, -183318.42, -187500.02, 36374.33, 187500.00, -187500.02, 187500.00
806, -187500.02, -183344.17, -183327.69, -187500.02, 36369.80, 187500.00, -187500.02, 187500.00
807, -187500.02, -183360.11, -183336.02, -187500.02, 36366.42, 187500.00, -187500.02, 187500.00
808, -187500.02, -183381.30, -183344.05, -187500.02, 36352.74, 187500.00, -187500.02, 187500.00
809, -187500.02, -183312.17, -183349.20, -187500.02, 36340.31, 187500.00, -187500.02, 187500.00
810, -187500.02, -183286.69, -183361.23, -187500.02, 36334.64, 187500.00, -187500.02, 187500.00
811, -187500.02, -183365.08, -183374.23, -187500.02, 36333.70, 187500.00, -187500.02, 187500.00
812, -187500.02, -183296.33, -183380.28, -187500.02, 36321.25, 187500.00, -187500.02, 187500.00
813, -187500.02, -183311.77, -183392.17, -187500.02, 36306.54, 187500.00, -187500.02, 187500.00
814, -187500.02, -183281.14, -183402.63, -187500.02, 36297.02, 187500.00, -187500.02, 187500.00
815, -187500.02, -183295.08, -183406.34, -187500.02, 36294.92, 187500.00, -187500.02, 187500.00
816, -187500.02, -183348.66, -183412.47, -187500.02, 36284.75, 187500.00, -187500.02, 187500.00
817, -187500.02, -183325.14, -183420.95, -187500.02, 36271.65, 187500.00, -187500.02, 187500.00
818, -187500.02, -183324.36, -183436.98, -187500.02, 36264.56, 187500.00, -187500.02, 187500.00
819, -187500.02, -183334.23, -183451.53, -187500.02, 36264.34, 187500.00, -187500.02, 187500.00
820, -187500.02, -183296.19, -183462.16, -187500.02, 36256.47, 187500.00, -187500.02, 187500.00
821, -187500.02, -183279.67, -183470.53, -187500.02, 36241.77, 187500.00, -187500.02, 187500.00
822, -187500.02, -183294.30, -183476.30, -187500.02, 36232.64, 187500.00, -187500.02, 187500.00
823, -187500.02, -183288.75, -183484.72, -187500.02, 36229.56, 187500.00, -187500.02, 187500.00
824, -187500.02, -183337.00, -183488.28, -187500.02, 36223.82, 187500.00, -187500.02, 187500.00
825, -187500.02, -183303.08, -183495.34, -187500.02, 36210.12, 187500.00, -187500.02, 187500.00
826, -187500.02, -183283.22, -183504.22, -187500.02, 36198.61, 187500.00, -187500.02, 187500.00
827, -187500.02, -183243.17, -183511.13, -187500.02, 36196.30, 187500.00, -187500.02, 187500.00
828, -187500.02, -183240.41, -183540.06, -187500.02, 36192.48, 187500.00, -187500.02, 187500.00
829, -187500.02, -183259.58, -183626.03, -187500.02, 36165.23, 187500.00, -187500.02, 187500.00
830, -187500.02, -183224.86, -183597.31, -187500.02, 36125.69, 187500.00, -187500.02, 187500.00
831, -187500.02, -183217.67, -183525.11, -187500.02, 36092.46, 187500.00, -187500.02, 187500.00
832, -187500.02, -183242.19, -183462.52, -187500.02, 36061.79, 187500.00, -187500.02, 187500.00
833, -187500.02, -183298.58, -183397.06, -187500.02, 36021.33, 187500.00, -187500.02, 187500.00
834, -187500.02, -183248.20, -183311.14, -187500.02, 35982.15, 187500.00, -187500.02, 187500.00
835, -187500.02, -183166.33, -183169.17, -187500.02, 35965.09, 187500.00, -187500.02, 187500.00
836, -187500.02, -183201.47, -183143.02, -187500.02, 35965.14, 187500.00, -187500.02, 187500.00
837, -187500.02, -183231.81, -183154.14, -187500.02, 35952.58, 187500.00, -187500.02, 187500.00
838, -187500.02, -183207.91, -183168.69, -187500.02, 35938.52, 187500.00, -187500.02, 187500.00
839, -187500.02, -183171.11, -183176.11, -187500.02, 35932.95, 187500.00, -187500.02, 187500.00
840, -187500.02, -183159.00, -183176.47, -187500.02, 35933.58, 187500.00, -187500.02, 187500.00
841, -187500.02, -183159.63, -183183.25, -187500.02, 35926.29, 187500.00, -187500.02, 187500.00
842, -187500.02, -183159.64, -183196.25, -187500.02, 35913.29, 187500.00, -187500.02, 187500.00
843, -187500.02, -183228.64, -183209.02, -187500.02, 35905.80, 187500.00, -187500.02, 187500.00
844, -187500.02, -183139.95, -183217.22, -187500.02, 35905.53, 187500.00, -187500.02, 187500.00
845, -187500.02, -183166.28, -183221.06, -187500.02, 35897.19, 187500.00, -187500.02, 187500.00
846, -187500.02, -183182.98, -183230.50, -187500.02, 35883.29, 187500.00, -187500.02, 187500.00
847, -187500.02, -183194.59, -183240.25, -187500.02, 35875.18, 187500.00, -187500.02, 187500.00
848, -187500.02, -183172.52, -183245.16, -187500.02, 35875.64, 187500.00, -187500.02, 187500.00
849, -187500.02, -183158.84, -183248.47, -187500.02, 35873.50, 187500.00, -187500.02, 187500.00
850, -187500.02, -183162.50, -183251.80, -187500.02, 35860.78, 187500.00, -187500.02, 187500.00
851, -187500.02, -183128.59, -183261.41, -187500.02, 35852.89, 187500.00, -187500.02, 187500.00
852, -187500.02, -183100.17, -183270.70, -187500.02, 35851.77, 187500.00, -187500.02, 187500.00
853, -187500.02, -183104.33, -183286.52, -187500.02, 35847.91, 187500.00, -187500.02, 187500.00
854, -187500.02, -183112.75, -183300.61, -187500.02, 35833.67, 187500.00, -187500.02, 187500.00
855, -187500.02, -183115.81, -183311.44, -187500.02, 35823.56, 187500.00, -187500.02, 187500.00
856, -187500.02, -183093.66, -183324.75, -187500.02, 35824.26, 187500.00, -187500.02, 187500.00
857, -187500.02, -183098.89, -183331.86, -187500.02, 35826.89, 187500.00, -187500.02, 187500.00
858, -187500.02, -183102.89, -183334.67, -187500.02, 35815.45, 187500.00, -187500.02, 187500.00
859, -187500.02, -183094.22, -183342.56, -187500.02, 35806.22, 187500.00, -187500.02, 187500.00
860, -187500.02, -183076.00, -183349.03, -187500.02, 35804.05, 187500.00, -187500.02, 187500.00
861, -187500.02, -183111.45, -183362.70, -187500.02, 35806.11, 187500.00, -187500.02, 187500.00
862, -187500.02, -183120.17, -183446.17, -187500.02, 35791.69, 187500.00, -187500.02, 187500.00
863, -187500.02, -183087.06, -183459.36, -187500.02, 35755.97, 187500.00, -187500.02, 187500.00
864, -187500.02, -183063.86, -183393.02, -187500.02, 35723.81, 187500.00, -187500.02, 187500.00
865, -187500.02, -183082.47, -183324.39, -187500.02, 35698.71, 187500.00, -187500.02, 187500.00
866, -187500.02, -183089.41, -183255.58, -187500.02, 35664.80, 187500.00, -187500.02, 187500.00
867, -187500.02, -183031.72, -183181.38, -187500.02, 35625.26, 187500.00, -187500.02, 187500.00
868, -187500.02, -182983.78, -183040.17, -187500.02, 35600.00, 187500.00, -187500.02, 187500.00
869, -187500.02, -183017.28, -182978.50, -187500.02, 35597.34, 187500.00, -187500.02, 187500.00
870, -187500.02, -183083.84, -182988.78, -187500.02, 35594.35, 187500.00, -187500.02, 187500.00
871, -187500.02, -183080.66, -182990.97, -187500.02, 35581.14, 187500.00, -187500.02, 187500.00
872, -187500.02, -183034.63, -182997.91, -187500.02, 35573.98, 187500.00, -187500.02, 187500.00
873, -187500.02, -182950.91, -183007.30, -187500.02, 35577.14, 187500.00, -187500.02, 187500.00
874, -187500.02, -183002.39, -183014.78, -187500.02, 35577.72, 187500.00, -187500.02, 187500.00
875, -187500.02, -183013.59, -183028.66, -187500.02, 35566.41, 187500.00, -187500.02, 187500.00
876, -187500.02, -182986.11, -183042.94, -187500.02, 35557.96, 187500.00, -187500.02, 187500.00
877, -187500.02, -182972.73, -183051.75, -187500.02, 35556.46, 187500.00, -187500.02, 187500.00
878, -187500.02, -182988.77, -183056.00, -187500.02, 35558.41, 187500.00, -187500.02, 187500.00
879, -187500.02, -182986.19, -183068.45, -187500.02, 35549.09, 187500.00, -187500.02, 187500.00
880, -187500.02, -183000.41, -183077.09, -187500.02, 35542.13, 187500.00, -187500.02, 187500.00
881, -187500.02, -182967.66, -183079.27, -187500.02, 35543.95, 187500.00, -187500.02, 187500.00
882, -187500.02, -182976.31, -183086.86, -187500.02, 35548.35, 187500.00, -187500.02, 187500.00
883, -187500.02, -183057.41, -183097.91, -187500.02, 35540.23, 187500.00, -187500.02, 187500.00
884, -187500.02, -182997.80, -183108.53, -187500.02, 35527.96, 187500.00, -187500.02, 187500.00
885, -187500.02, -182966.14, -183116.23, -187500.02, 35521.86, 187500.00, -187500.02, 187500.00
886, -187500.02, -182964.94, -183123.52, -187500.02, 35525.82, 187500.00, -187500.02, 187500.00
887, -187500.02, -182981.20, -183134.16, -187500.02, 35520.79, 187500.00, -187500.02, 187500.00
888, -187500.02, -182954.47, -183144.64, -187500.02, 35512.07, 187500.00, -187500.02, 187500.00
889, -187500.02, -182943.97, -183149.67, -187500.02, 35510.57, 187500.00, -187500.02, 187500.00
890, -187500.02, -182908.30, -183156.41, -187500.02, 35515.00, 187500.00, -187500.02, 187500.00
891, -187500.02, -182903.41, -183172.03, -187500.02, 35512.56, 187500.00, -187500.02, 187500.00
892, -187500.02, -182967.55, -183184.92, -187500.02, 35501.72, 187500.00, -187500.02, 187500.00
893, -187500.02, -182945.80, -183190.42, -187500.02, 35495.15, 187500.00, -187500.02, 187500.00
894, -187500.02, -182913.73, -183204.75, -187500.02, 35496.16, 187500.00, -187500.02, 187500.00
895, -187500.02, -182913.91, -183290.89, -187500.02, 35484.82, 187500.00, -187500.02, 187500.00
896, -187500.02, -182937.02, -183280.09, -187500.02, 35448.73, 187500.00, -187500.02, 187500.00
897, -187500.02, -182908.44, -183213.05, -187500.02, 35416.88, 187500.00, -187500.02, 187500.00
898, -187500.02, -182916.59, -183144.75, -187500.02, 35390.81, 187500.00, -187500.02, 187500.00
899, -187500.02, -182918.11, -183073.83, -187500.02, 35363.01, 187500.00, -187500.02, 187500.00
900, -187500.02, -182920.61, -182961.19, -187500.02, 35327.49, 187500.00, -187500.02, 187500.00
901, -187500.02, -182896.63, -182845.44, -187500.02, 35310.21, 187500.00, -187500.02, 187500.00
902, -187500.02, -182811.92, -182842.89, -187500.02, 35312.92, 187500.00, -187500.02, 187500.00
903, -187500.02, -182843.45, -182853.52, -187500.02, 35316.00, 187500.00, -187500.02, 187500.00
904, -187500.02, -182898.97, -182863.95, -187500.02, 35307.29, 187500.00, -187500.02, 187500.00
905, -187500.02, -182875.69, -182873.55, -187500.02, 35300.42, 187500.00, -187500.02, 187500.00
906, -187500.02, -182823.09, -182878.25, -187500.02, 35299.91, 187500.00, -187500.02, 187500.00
907, -187500.02, -182869.56, -182885.28, -187500.02, 35303.28, 187500.00, -187500.02, 187500.00
908, -187500.02, -182926.25, -182892.94, -187500.02, 35294.45, 187500.00, -187500.02, 187500.00
909, -187500.02, -182885.19, -182906.75, -187500.02, 35284.44, 187500.00, -187500.02, 187500.00
910, -187500.02, -182842.97, -182916.81, -187500.02, 35283.30, 187500.00, -187500.02, 187500.00
911, -187500.02, -182850.67, -182927.09, -187500.02, 35288.29, 187500.00, -187500.02, 187500.00
912, -187500.02, -182884.22, -182933.59, -187500.02, 35283.93, 187500.00, -187500.02, 187500.00
913, -187500.02, -182829.63, -182937.83, -187500.02, 35275.59, 187500.00, -187500.02, 187500.00
914, -187500.02, -182830.98, -182950.70, -187500.02, 35273.38, 187500.00, -187500.02, 187500.00
915, -187500.02, -182842.53, -182962.95, -187500.02, 35276.08, 187500.00, -187500.02, 187500.00
916, -187500.02, -182838.67, -182968.52, -187500.02, 35273.02, 187500.00, -187500.02, 187500.00
917, -187500.02, -182822.16, -182971.23, -187500.02, 35261.26, 187500.00, -187500.02, 187500.00
918, -187500.02, -182820.83, -182979.33, -187500.02, 35257.60, 187500.00, -187500.02, 187500.00
919, -187500.02, -182820.44, -182992.20, -187500.02, 35262.34, 187500.00, -187500.02, 187500.00
920, -187500.02, -182863.22, -183000.70, -187500.02, 35262.31, 187500.00, -187500.02, 187500.00
921, -187500.02, -182842.11, -183005.30, -187500.02, 35254.54, 187500.00, -187500.02, 187500.00
922, -187500.02, -182804.42, -183014.52, -187500.02, 35248.61, 187500.00, -187500.02, 187500.00
923, -187500.02, -182784.33, -183025.73, -187500.02, 35252.43, 187500.00, -187500.02, 187500.00
924, -187500.02, -182781.67, -183032.66, -187500.02, 35254.22, 187500.00, -187500.02, 187500.00
925, -187500.02, -182787.19, -183042.16, -187500.02, 35244.81, 187500.00, -187500.02, 187500.00
926, -187500.02, -182809.72, -183103.31, -187500.02, 35234.71, 187500.00, -187500.02, 187500.00
927, -187500.02, -182797.97, -183151.03, -187500.02, 35213.52, 187500.00, -187500.02, 187500.00
928, -187500.02, -182784.94, -183086.13, -187500.02, 35187.23, 187500.00, -187500.02, 187500.00
929, -187500.02, -182779.39, -183021.91, -187500.02, 35155.02, 187500.00, -187500.02, 187500.00
930, -187500.02, -182776.94, -182958.09, -187500.02, 35120.58, 187500.00, -187500.02, 187500.00
931, -187500.02, -182754.52, -182875.59, -187500.02, 35092.39, 187500.00, -187500.02, 187500.00
932, -187500.02, -182767.39, -182731.52, -187500.02, 35081.35, 187500.00, -187500.02, 187500.00
933, -187500.02, -182807.45, -182693.52, -187500.02, 35073.89, 187500.00, -187500.02, 187500.00
934, -187500.02, -182783.39, -182700.78, -187500.02, 35067.41, 187500.00, -187500.02, 187500.00
935, -187500.02, -182778.75, -182712.81, -187500.02, 35068.30, 187500.00, -187500.02, 187500.00
936, -187500.02, -182776.88, -182722.69, -187500.02, 35074.94, 187500.00, -187500.02, 187500.00
937, -187500.02, -182747.25, -182727.31, -187500.02, 35072.97, 187500.00, -187500.02, 187500.00
938, -187500.02, -182689.05, -182739.91, -187500.02, 35065.97, 187500.00, -187500.02, 187500.00
939, -187500.02, -182676.75, -182748.84, -187500.02, 35066.55, 187500.00, -187500.02, 187500.00
940, -187500.02, -182699.69, -182757.11, -187500.02, 35072.39, 187500.00, -187500.02, 187500.00
941, -187500.02, -182727.27, -182766.08, -187500.02, 35069.80, 187500.00, -187500.02, 187500.00
942, -187500.02, -182736.05, -182773.00, -187500.02, 35058.91, 187500.00, -187500.02, 187500.00
943, -187500.02, -182686.59, -182782.97, -187500.02, 35055.54, 187500.00, -187500.02, 187500.00
944, -187500.02, -182704.78, -182790.02, -187500.02, 35062.29, 187500.00, -187500.02, 187500.00
945, -187500.02, -182689.45, -182797.67, -187500.02, 35067.72, 187500.00, -187500.02, 187500.00
946, -187500.02, -182703.20, -182806.28, -187500.02, 35060.88, 187500.00, -187500.02, 187500.00
947, -187500.02, -182669.98, -182812.39, -187500.02, 35056.88, 187500.00, -187500.02, 187500.00
948, -187500.02, -182629.92, -182828.03, -187500.02, 35060.14, 187500.00, -187500.02, 187500.00
949, -187500.02, -182684.06, -182838.84, -187500.02, 35061.93, 187500.00, -187500.02, 187500.00
950, -187500.02, -182686.03, -182839.36, -187500.02, 35055.27, 187500.00, -187500.02, 187500.00
951, -187500.02, -182629.30, -182844.69, -187500.02, 35052.47, 187500.00, -187500.02, 187500.00
952, -187500.02, -182625.80, -182856.11, -187500.02, 35057.64, 187500.00, -187500.02, 187500.00
953, -187500.02, -182675.69, -182866.75, -187500.02, 35064.68, 187500.00, -187500.02, 187500.00
954, -187500.02, -182691.39, -182877.42, -187500.02, 35058.44, 187500.00, -187500.02, 187500.00
955, -187500.02, -182622.31, -182885.25, -187500.02, 35052.70, 187500.00, -187500.02, 187500.00
956, -187500.02, -182547.20, -182889.41, -187500.02, 35052.47, 187500.00, -187500.02, 187500.00
957, -187500.02, -182627.56, -182905.38, -187500.02, 35058.26, 187500.00, -187500.02, 187500.00
958, -187500.02, -182629.55, -182993.55, -187500.02, 35044.54, 187500.00, -187500.02, 187500.00
959, -187500.02, -182621.14, -182984.89, -187500.02, 35011.13, 187500.00, -187500.02, 187500.00
960, -187500.02, -182580.63, -182920.72, -187500.02, 34986.36, 187500.00, -187500.02, 187500.00
961, -187500.02, -182584.84, -182853.83, -187500.02, 34969.37, 187500.00, -187500.02, 187500.00
962, -187500.02, -182690.69, -182781.88, -187500.02, 34940.83, 187500.00, -187500.02, 187500.00
963, -187500.02, -182694.48, -182664.55, -187500.02, 34907.37, 187500.00, -187500.02, 187500.00
964, -187500.02, -182629.53, -182556.75, -187500.02, 34896.32, 187500.00, -187500.02, 187500.00
965, -187500.02, -182586.14, -182556.97, -187500.02, 34902.80, 187500.00, -187500.02, 187500.00
966, -187500.02, -182615.16, -182568.69, -187500.02, 34907.93, 187500.00, -187500.02, 187500.00
967, -187500.02, -182545.55, -182576.50, -187500.02, 34901.64, 187500.00, -187500.02, 187500.00
968, -187500.02, -182581.77, -182584.33, -187500.02, 34901.46, 187500.00, -187500.02, 187500.00
969, -187500.02, -182527.69, -182591.08, -187500.02, 34909.11, 187500.00, -187500.02, 187500.00
970, -187500.02, -182537.55, -182595.73, -187500.02, 34913.67, 187500.00, -187500.02, 187500.00
971, -187500.02, -182566.16, -182600.94, -187500.02, 34908.30, 187500.00, -187500.02, 187500.00
972, -187500.02, -182575.41, -182615.53, -187500.02, 34906.63, 187500.00, -187500.02, 187500.00
973, -187500.02, -182596.56, -182625.97, -187500.02, 34913.11, 187500.00, -187500.02, 187500.00
974, -187500.02, -182585.98, -182630.67, -187500.02, 34920.42, 187500.00, -187500.02, 187500.00
975, -187500.02, -182579.81, -182639.39, -187500.02, 34920.38, 187500.00, -187500.02, 187500.00
976, -187500.02, -182522.19, -182646.14, -187500.02, 34920.87, 187500.00, -187500.02, 187500.00
977, -187500.02, -182496.89, -182647.47, -187500.02, 34926.77, 187500.00, -187500.02, 187500.00
978, -187500.02, -182536.44, -182658.14, -187500.02, 34937.07, 187500.00, -187500.02, 187500.00
979, -187500.02, -182566.56, -182667.88, -187500.02, 34935.13, 187500.00, -187500.02, 187500.00
980, -187500.02, -182526.13, -182676.91, -187500.02, 34931.39, 187500.00, -187500.02, 187500.00
981, -187500.02, -182539.45, -182688.11, -187500.02, 34934.30, 187500.00, -187500.02, 187500.00
982, -187500.02, -182495.06, -182698.03, -187500.02, 34942.95, 187500.00, -187500.02, 187500.00
983, -187500.02, -182494.19, -182704.42, -187500.02, 34943.02, 187500.00, -187500.02, 187500.00
984, -187500.02, -182511.39, -182704.77, -187500.02, 34938.88, 187500.00, -187500.02, 187500.00
985, -187500.02, -182501.30, -182708.66, -187500.02, 34942.61, 187500.00, -187500.02, 187500.00
986, -187500.02, -182408.13, -182713.03, -187500.02, 34952.52, 187500.00, -187500.02, 187500.00
987, -187500.02, -182465.84, -182728.50, -187500.02, 34956.00, 187500.00, -187500.02, 187500.00
988, -187500.02, -182482.56, -182741.28, -187500.02, 34953.37, 187500.00, -187500.02, 187500.00
989, -187500.02, -182483.84, -182756.38, -187500.02, 34954.02, 187500.00, -187500.02, 187500.00
990, -187500.02, -182435.25, -182785.56, -187500.02, 34961.35, 187500.00, -187500.02, 187500.00
991, -187500.02, -182486.83, -182867.58, -187500.02, 34951.09, 187500.00, -187500.02, 187500.00
992, -187500.02, -182516.89, -182833.00, -187500.02, 34915.17, 187500.00, -187500.02, 187500.00
993, -187500.02, -182463.30, -182760.48, -187500.02, 34886.51, 187500.00, -187500.02, 187500.00
994, -187500.02, -182437.39, -182688.69, -187500.02, 34866.95, 187500.00, -187500.02, 187500.00
995, -187500.02, -182397.11, -182617.45, -187500.02, 34843.66, 187500.00, -187500.02, 187500.00
996, -187500.02, -182393.33, -182510.55, -187500.02, 34813.09, 187500.00, -187500.02, 187500.00
997, -187500.02, -182455.16, -182391.86, -187500.02, 34802.54, 187500.00, -187500.02, 187500.00
998, -187500.02, -182435.58, -182386.05, -187500.02, 34810.11, 187500.00, -187500.02, 187500.00
999, -187500.02, -182428.27, -182395.08, -187500.02, 34819.05, 187500.00, -187500.02, 187500.00
1000, -187500.02, -182429.02, -182404.11, -187500.02, 34817.73, 187500.00, -187500.02, 187500.00
1001, -187500.02, -182428.81, -182408.31, -187500.02, 34818.61, 187500.00, -187500.02, 187500.00
1002, -187500.02, -182387.69, -182413.92, -187500.02, 34824.60, 187500.00, -187500.02, 187500.00
1003, -187500.02, -182413.58, -182421.59, -187500.02, 34836.80, 187500.00, -187500.02, 187500.00
1004, -187500.02, -182479.39, -182434.69, -187500.02, 34838.46, 187500.00, -187500.02, 187500.00
1005, -187500.02, -182431.48, -182445.08, -187500.02, 34835.08, 187500.00, -187500.02, 187500.00
1006, -187500.02, -182360.34, -182457.22, -187500.02, 34840.24, 187500.00, -187500.02, 187500.00
1007, -187500.02, -182374.66, -182466.92, -187500.02, 34852.20, 187500.00, -187500.02, 187500.00
1008, -187500.02, -182407.70, -182476.66, -187500.02, 34854.21, 187500.00, -187500.02, 187500.00
1009, -187500.02, -182391.48, -182478.72, -187500.02, 34850.79, 187500.00, -187500.02, 187500.00
1010, -187500.02, -182356.56, -182489.52, -187500.02, 34853.48, 187500.00, -187500.02, 187500.00
1011, -187500.02, -182370.20, -182500.06, -187500.02, 34863.89, 187500.00, -187500.02, 187500.00
1012, -187500.02, -182354.73, -182507.67, -187500.02, 34867.11, 187500.00, -187500.02, 187500.00
1013, -187500.02, -182334.22, -182517.30, -187500.02, 34861.88, 187500.00, -187500.02, 187500.00
1014, -187500.02, -182336.63, -182519.27, -187500.02, 34861.99, 187500.00, -187500.02, 187500.00
1015, -187500.02, -182365.31, -182524.39, -187500.02, 34872.27, 187500.00, -187500.02, 187500.00
1016, -187500.02, -182341.34, -182533.77, -187500.02, 34880.25, 187500.00, -187500.02, 187500.00
1017, -187500.02, -182309.31, -182544.92, -187500.02, 34878.69, 187500.00, -187500.02, 187500.00
1018, -187500.02, -182307.86, -182549.89, -187500.02, 34878.91, 187500.00, -187500.02, 187500.00
1019, -187500.02, -182364.28, -182555.28, -187500.02, 34886.76, 187500.00, -187500.02, 187500.00
1020, -187500.02, -182352.19, -182564.61, -187500.02, 34894.07, 187500.00, -187500.02, 187500.00
1021, -187500.02, -182351.81, -182575.80, -187500.02, 34892.52, 187500.00, -187500.02, 187500.00
1022, -187500.02, -182295.61, -182585.61, -187500.02, 34894.13, 187500.00, -187500.02, 187500.00
1023, -187500.02, -182310.97, -182606.17, -187500.02, 34903.45, 187500.00, -187500.02, 187500.00
1024, -187500.02, -182333.45, -182690.77, -187500.02, 34905.69, 187500.00, -187500.02, 187500.00
1025, -187500.02, -182335.33, -182688.88, -187500.02, 34881.04, 187500.00, -187500.02, 187500.00
1026, -187500.02, -182281.11, -182620.23, -187500.02, 34852.87, 187500.00, -187500.02, 187500.00
1027, -187500.02, -182291.19, -182549.73, -187500.02, 34832.27, 187500.00, -187500.02, 187500.00
1028, -187500.02, -182295.92, -182483.61, -187500.02, 34815.23, 187500.00, -187500.02, 187500.00
1029, -187500.02, -182295.17, -182381.78, -187500.02, 34788.16, 187500.00, -187500.02, 187500.00
1030, -187500.02, -182242.64, -182250.06, -187500.02, 34774.35, 187500.00, -187500.02, 187500.00
1031, -187500.02, -182221.05, -182241.05, -187500.02, 34778.96, 187500.00, -187500.02, 187500.00
1032, -187500.02, -182244.25, -182249.72, -187500.02, 34791.47, 187500.00, -187500.02, 187500.00
1033, -187500.02, -182295.55, -182256.08, -187500.02, 34796.17, 187500.00, -187500.02, 187500.00
1034, -187500.02, -182264.98, -182267.73, -187500.02, 34793.77, 187500.00, -187500.02, 187500.00
1035, -187500.02, -182229.11, -182275.63, -187500.02, 34797.30, 187500.00, -187500.02, 187500.00
1036, -187500.02, -182210.05, -182285.63, -187500.02, 34809.24, 187500.00, -187500.02, 187500.00
1037, -187500.02, -182181.47, -182294.86, -187500.02, 34814.92, 187500.00, -187500.02, 187500.00
1038, -187500.02, -182242.33, -182302.55, -187500.02, 34814.74, 187500.00, -187500.02, 187500.00
1039, -187500.02, -182278.48, -182305.50, -187500.02, 34816.11, 187500.00, -187500.02, 187500.00
1040, -187500.02, -182219.63, -182309.78, -187500.02, 34825.76, 187500.00, -187500.02, 187500.00
1041, -187500.02, -182253.19, -182315.02, -187500.02, 34835.86, 187500.00, -187500.02, 187500.00
1042, -187500.02, -182215.19, -182324.00, -187500.02, 34834.66, 187500.00, -187500.02, 187500.00
1043, -187500.02, -182200.42, -182332.25, -187500.02, 34837.83, 187500.00, -187500.02, 187500.00
1044, -187500.02, -182216.69, -182340.88, -187500.02, 34847.89, 187500.00, -187500.02, 187500.00
1045, -187500.02, -182282.78, -182355.00, -187500.02, 34857.28, 187500.00, -187500.02, 187500.00
1046, -187500.02, -182262.64, -182363.78, -187500.02, 34855.84, 187500.00, -187500.02, 187500.00
1047, -187500.02, -182215.42, -182367.58, -187500.02, 34856.07, 187500.00, -187500.02, 187500.00
1048, -187500.02, -182121.53, -182372.48, -187500.02, 34864.09, 187500.00, -187500.02, 187500.00
1049, -187500.02, -182094.22, -182380.42, -187500.02, 34876.34, 187500.00, -187500.02, 187500.00
1050, -187500.02, -182132.53, -182393.05, -187500.02, 34877.39, 187500.00, -187500.02, 187500.00
1051, -187500.02, -182128.06, -182399.66, -187500.02, 34876.57, 187500.00, -187500.02, 187500.00
1052, -187500.02, -182158.73, -182406.48, -187500.02, 34885.57, 187500.00, -187500.02, 187500.00
1053, -187500.02, -182190.94, -182413.11, -187500.02, 34898.43, 187500.00, -187500.02, 187500.00
1054, -187500.02, -182188.45, -182421.05, -187500.02, 34900.82, 187500.00, -187500.02, 187500.00
1055, -187500.02, -182207.86, -182430.78, -187500.02, 34899.95, 187500.00, -187500.02, 187500.00
1056, -187500.02, -182184.08, -182436.31, -187500.02, 34906.58, 187500.00, -187500.02, 187500.00
1057, -187500.02, -182172.95, -182451.06, -187500.02, 34920.24, 187500.00, -187500.02, 187500.00
1058, -187500.02, -182195.25, -182536.39, -187500.02, 34915.77, 187500.00, -187500.02, 187500.00
1059, -187500.02, -182200.03, -182536.59, -187500.02, 34887.07, 187500.00, -187500.02, 187500.00
1060, -187500.02, -182140.16, -182468.44, -187500.02, 34862.93, 187500.00, -187500.02, 187500.00
1061, -187500.02, -182183.61, -182402.81, -187500.02, 34845.52, 187500.00, -187500.02, 187500.00
1062, -187500.02, -182175.34, -182335.02, -187500.02, 34825.09, 187500.00, -187500.02, 187500.00
1063, -187500.02, -182202.63, -182228.25, -187500.02, 34798.04, 187500.00, -187500.02, 187500.00
1064, -187500.02, -182186.88, -182103.25, -187500.02, 34791.36, 187500.00, -187500.02, 187500.00
1065, -187500.02, -182112.33, -182093.05, -187500.02, 34803.99, 187500.00, -187500.02, 187500.00
1066, -187500.02, -182111.41, -182100.33, -187500.02, 34813.54, 187500.00, -187500.02, 187500.00
1067, -187500.02, -182084.05, -182110.66, -187500.02, 34811.95, 187500.00, -187500.02, 187500.00
1068, -187500.02, -182069.80, -182125.06, -187500.02, 34813.58, 187500.00, -187500.02, 187500.00
1069, -187500.02, -182105.44, -182133.66, -187500.02, 34821.69, 187500.00, -187500.02, 187500.00
1070, -187500.02, -182114.25, -182137.28, -187500.02, 34830.03, 187500.00, -187500.02, 187500.00
1071, -187500.02, -182109.36, -182145.55, -187500.02, 34828.15, 187500.00, -187500.02, 187500.00
1072, -187500.02, -182095.78, -182156.08, -187500.02, 34828.96, 187500.00, -187500.02, 187500.00
1073, -187500.02, -182066.89, -182162.52, -187500.02, 34838.95, 187500.00, -187500.02, 187500.00
1074, -187500.02, -182090.09, -182169.66, -187500.02, 34851.02, 187500.00, -187500.02, 187500.00
1075, -187500.02, -182130.48, -182177.31, -187500.02, 34852.27, 187500.00, -187500.02, 187500.00
1076, -187500.02, -182076.14, -182184.45, -187500.02, 34851.53, 187500.00, -187500.02, 187500.00
1077, -187500.02, -182083.20, -182194.97, -187500.02, 34857.75, 187500.00, -187500.02, 187500.00
1078, -187500.02, -182061.61, -182204.08, -187500.02, 34873.05, 187500.00, -187500.02, 187500.00
1079, -187500.02, -182086.61, -182212.27, -187500.02, 34879.76, 187500.00, -187500.02, 187500.00
1080, -187500.02, -182075.94, -182217.63, -187500.02, 34879.07, 187500.00, -187500.02, 187500.00
1081, -187500.02, -182030.45, -182227.17, -187500.02, 34886.47, 187500.00, -187500.02, 187500.00
1082, -187500.02, -182001.36, -182237.05, -187500.02, 34899.54, 187500.00, -187500.02, 187500.00
1083, -187500.02, -182072.28, -182242.58, -187500.02, 34904.68, 187500.00, -187500.02, 187500.00
1084, -187500.02, -182041.81, -182253.84, -187500.02, 34904.55, 187500.00, -187500.02, 187500.00
1085, -187500.02, -182023.70, -182268.02, -187500.02, 34910.85, 187500.00, -187500.02, 187500.00
1086, -187500.02, -182055.84, -182276.22, -187500.02, 34924.22, 187500.00, -187500.02, 187500.00
1087, -187500.02, -182075.31, -182281.75, -187500.02, 34933.61, 187500.00, -187500.02, 187500.00
1088, -187500.02, -182071.36, -182286.67, -187500.02, 34932.82, 187500.00, -187500.02, 187500.00
1089, -187500.02, -182031.17, -182300.02, -187500.02, 34937.32, 187500.00, -187500.02, 187500.00
1090, -187500.02, -181980.08, -182383.13, -187500.02, 34940.29, 187500.00, -187500.02, 187500.00
1091, -187500.02, -182029.41, -182378.34, -187500.02, 34925.96, 187500.00, -187500.02, 187500.00
1092, -187500.02, -181986.58, -182314.70, -187500.02, 34896.95, 187500.00, -187500.02, 187500.00
1093, -187500.02, -181965.13, -182250.89, -187500.02, 34870.80, 187500.00, -187500.02, 187500.00
1094, -187500.02, -181946.41, -182185.42, -187500.02, 34854.06, 187500.00, -187500.02, 187500.00
1095, -187500.02, -181995.16, -182080.52, -187500.02, 34842.05, 187500.00, -187500.02, 187500.00
1096, -187500.02, -181995.31, -181951.33, -187500.02, 34833.41, 187500.00, -187500.02, 187500.00
1097, -187500.02, -182011.17, -181940.94, -187500.02, 34838.01, 187500.00, -187500.02, 187500.00
1098, -187500.02, -182008.22, -181952.73, -187500.02, 34849.07, 187500.00, -187500.02, 187500.00
1099, -187500.02, -181985.14, -181961.88, -187500.02, 34862.26, 187500.00, -187500.02, 187500.00
1100, -187500.02, -181971.78, -181968.61, -187500.02, 34867.96, 187500.00, -187500.02, 187500.00
1101, -187500.02, -181944.00, -181978.83, -187500.02, 34872.27, 187500.00, -187500.02, 187500.00
1102, -187500.02, -181947.66, -181987.30, -187500.02, 34882.27, 187500.00, -187500.02, 187500.00
1103, -187500.02, -181959.53, -181997.69, -187500.02, 34898.14, 187500.00, -187500.02, 187500.00
1104, -187500.02, -181970.70, -182005.31, -187500.02, 34905.98, 187500.00, -187500.02, 187500.00
1105, -187500.02, -181941.83, -182011.72, -187500.02, 34907.90, 187500.00, -187500.02, 187500.00
1106, -187500.02, -181905.64, -182019.09, -187500.02, 34913.65, 187500.00, -187500.02, 187500.00
1107, -187500.02, -181915.45, -182026.86, -187500.02, 34929.00, 187500.00, -187500.02, 187500.00
1108, -187500.02, -181910.47, -182032.73, -187500.02, 34937.41, 187500.00, -187500.02, 187500.00
1109, -187500.02, -181924.91, -182043.27, -187500.02, 34935.08, 187500.00, -187500.02, 187500.00
1110, -187500.02, -181904.95, -182052.19, -187500.02, 34939.39, 187500.00, -187500.02, 187500.00
1111, -187500.02, -181865.28, -182061.05, -187500.02, 34953.79, 187500.00, -187500.02, 187500.00
1112, -187500.02, -181913.44, -182066.63, -187500.02, 34965.46, 187500.00, -187500.02, 187500.00
1113, -187500.02, -181880.20, -182074.05, -187500.02, 34970.15, 187500.00, -187500.02, 187500.00
1114, -187500.02, -181859.80, -182081.48, -187500.02, 34976.41, 187500.00, -187500.02, 187500.00
1115, -187500.02, -181866.95, -182090.45, -187500.02, 34989.51, 187500.00, -187500.02, 187500.00
1116, -187500.02, -181840.17, -182097.28, -187500.02, 35001.27, 187500.00, -187500.02, 187500.00
1117, -187500.02, -181893.59, -182101.02, -187500.02, 35001.07, 187500.00, -187500.02, 187500.00
1118, -187500.02, -181911.19, -182112.48, -187500.02, 35006.68, 187500.00, -187500.02, 187500.00
1119, -187500.02, -181887.56, -182123.14, -187500.02, 35020.09, 187500.00, -187500.02, 187500.00
1120, -187500.02, -181870.22, -182130.09, -187500.02, 35033.07, 187500.00, -187500.02, 187500.00
1121, -187500.02, -181898.47, -182135.47, -187500.02, 35036.96, 187500.00, -187500.02, 187500.00
1122, -187500.02, -181886.11, -182143.53, -187500.02, 35040.74, 187500.00, -187500.02, 187500.00
1123, -187500.02, -181862.66, -182169.19, -187500.02, 35052.88, 187500.00, -187500.02, 187500.00
1124, -187500.02, -181912.66, -182253.38, -187500.02, 35057.14, 187500.00, -187500.02, 187500.00
1125, -187500.02, -181879.94, -182235.47, -187500.02, 35032.94, 187500.00, -187500.02, 187500.00
1126, -187500.02, -181840.52, -182167.98, -187500.02, 35005.85, 187500.00, -187500.02, 187500.00
1127, -187500.02, -181882.55, -182097.36, -187500.02, 34988.61, 187500.00, -187500.02, 187500.00
1128, -187500.02, -181858.59, -182028.22, -187500.02, 34976.50, 187500.00, -187500.02, 187500.00
1129, -187500.02, -181876.55, -181923.33, -187500.02, 34959.22, 187500.00, -187500.02, 187500.00
1130, -187500.02, -181892.86, -181794.02, -187500.02, 34951.73, 187500.00, -187500.02, 187500.00
1131, -187500.02, -181832.03, -181789.39, -187500.02, 34959.74, 187500.00, -187500.02, 187500.00
1132, -187500.02, -181752.84, -181799.78, -187500.02, 34973.64, 187500.00, -187500.02, 187500.00
1133, -187500.02, -181825.22, -181802.06, -187500.02, 34980.46, 187500.00, -187500.02, 187500.00
1134, -187500.02, -181806.13, -181812.56, -187500.02, 34982.29, 187500.00, -187500.02, 187500.00
1135, -187500.02, -181795.16, -181827.17, -187500.02, 34989.93, 187500.00, -187500.02, 187500.00
1136, -187500.02, -181735.23, -181836.08, -187500.02, 35006.63, 187500.00, -187500.02, 187500.00
1137, -187500.02, -181808.39, -181839.23, -187500.02, 35021.07, 187500.00, -187500.02, 187500.00
1138, -187500.02, -181758.88, -181844.20, -187500.02, 35024.04, 187500.00, -187500.02, 187500.00
1139, -187500.02, -181724.33, -181851.13, -187500.02, 35029.63, 187500.00, -187500.02, 187500.00
1140, -187500.02, -181691.78, -181860.31, -187500.02, 35043.78, 187500.00, -187500.02, 187500.00
1141, -187500.02, -181743.72, -181865.25, -187500.02, 35055.58, 187500.00, -187500.02, 187500.00
1142, -187500.02, -181804.95, -181875.89, -187500.02, 35058.53, 187500.00, -187500.02, 187500.00
1143, -187500.02, -181812.13, -181889.27, -187500.02, 35065.66, 187500.00, -187500.02, 187500.00
1144, -187500.02, -181793.02, -181898.16, -187500.02, 35081.93, 187500.00, -187500.02, 187500.00
1145, -187500.02, -181726.00, -181902.20, -187500.02, 35101.02, 187500.00, -187500.02, 187500.00
1146, -187500.02, -181729.64, -181907.61, -187500.02, 35107.95, 187500.00, -187500.02, 187500.00
1147, -187500.02, -181737.42, -181917.47, -187500.02, 35112.36, 187500.00, -187500.02, 187500.00
1148, -187500.02, -181759.81, -181927.09, -187500.02, 35125.39, 187500.00, -187500.02, 187500.00
1149, -187500.02, -181738.94, -181937.19, -187500.02, 35142.75, 187500.00, -187500.02, 187500.00
1150, -187500.02, -181726.89, -181947.19, -187500.02, 35149.48, 187500.00, -187500.02, 187500.00
1151, -187500.02, -181725.20, -181951.00, -187500.02, 35151.22, 187500.00, -187500.02, 187500.00
1152, -187500.02, -181764.64, -181957.66, -187500.02, 35159.54, 187500.00, -187500.02, 187500.00
1153, -187500.02, -181702.28, -181961.45, -187500.02, 35175.70, 187500.00, -187500.02, 187500.00
1154, -187500.02, -181723.78, -181967.64, -187500.02, 35186.38, 187500.00, -187500.02, 187500.00
1155, -187500.02, -181697.03, -181980.63, -187500.02, 35189.04, 187500.00, -187500.02, 187500.00
1156, -187500.02, -181623.61, -181985.91, -187500.02, 35196.66, 187500.00, -187500.02, 187500.00
1157, -187500.02, -181732.19, -182004.50, -187500.02, 35209.29, 187500.00, -187500.02, 187500.00
1158, -187500.02, -181775.36, -182087.97, -187500.02, 35207.75, 187500.00, -187500.02, 187500.00
1159, -187500.02, -181745.20, -182075.36, -187500.02, 35184.75, 187500.00, -187500.02, 187500.00
1160, -187500.02, -181647.41, -182005.02, -187500.02, 35164.41, 187500.00, -187500.02, 187500.00
1161, -187500.02, -181651.03, -181940.00, -187500.02, 35152.83, 187500.00, -187500.02, 187500.00
1162, -187500.02, -181696.52, -181869.13, -187500.02, 35136.67, 187500.00, -187500.02, 187500.00
1163, -187500.02, -181703.25, -181758.41, -187500.02, 35114.79, 187500.00, -187500.02, 187500.00
1164, -187500.02, -181656.91, -181633.72, -187500.02, 35111.48, 187500.00, -187500.02, 187500.00
1165, -187500.02, -181641.09, -181630.17, -187500.02, 35126.73, 187500.00, -187500.02, 187500.00
1166, -187500.02, -181655.61, -181640.42, -187500.02, 35145.43, 187500.00, -187500.02, 187500.00
1167, -187500.02, -181658.77, -181646.50, -187500.02, 35149.70, 187500.00, -187500.02, 187500.00
1168, -187500.02, -181624.45, -181651.03, -187500.02, 35153.08, 187500.00, -187500.02, 187500.00
1169, -187500.02, -181606.73, -181658.88, -187500.02, 35166.47, 187500.00, -187500.02, 187500.00
1170, -187500.02, -181650.50, -181664.42, -187500.02, 35183.75, 187500.00, -187500.02, 187500.00
1171, -187500.02, -181651.66, -181676.72, -187500.02, 35190.77, 187500.00, -187500.02, 187500.00
1172, -187500.02, -181631.20, -181685.41, -187500.02, 35195.21, 187500.00, -187500.02, 187500.00
1173, -187500.02, -181582.03, -181695.30, -187500.02, 35207.19, 187500.00, -187500.02, 187500.00
1174, -187500.02, -181599.78, -181705.22, -187500.02, 35226.68, 187500.00, -187500.02, 187500.00
1175, -187500.02, -181681.36, -181716.14, -187500.02, 35238.04, 187500.00, -187500.02, 187500.00
1176, -187500.02, -181630.36, -181721.86, -187500.02, 35243.07, 187500.00, -187500.02, 187500.00
1177, -187500.02, -181577.39, -181724.92, -187500.02, 35254.62, 187500.00, -187500.02, 187500.00
1178, -187500.02, -181586.33, -181737.77, -187500.02, 35273.02, 187500.00, -187500.02, 187500.00
1179, -187500.02, -181606.91, -181745.69, -187500.02, 35282.14, 187500.00, -187500.02, 187500.00
1180, -187500.02, -181595.64, -181755.27, -187500.02, 35286.14, 187500.00, -187500.02, 187500.00
1181, -187500.02, -181546.98, -181768.42, -187500.02, 35293.70, 187500.00, -187500.02, 187500.00
1182, -187500.02, -181571.75, -181777.30, -187500.02, 35311.13, 187500.00, -187500.02, 187500.00
1183, -187500.02, -181589.72, -181787.30, -187500.02, 35324.65, 187500.00, -187500.02, 187500.00
1184, -187500.02, -181593.55, -181792.34, -187500.02, 35327.60, 187500.00, -187500.02, 187500.00
1185, -187500.02, -181616.67, -181795.27, -187500.02, 35338.29, 187500.00, -187500.02, 187500.00
1186, -187500.02, -181534.78, -181802.38, -187500.02, 35356.17, 187500.00, -187500.02, 187500.00
1187, -187500.02, -181573.55, -181808.69, -187500.02, 35373.67, 187500.00, -187500.02, 187500.00
1188, -187500.02, -181560.11, -181817.44, -187500.02, 35380.48, 187500.00, -187500.02, 187500.00
1189, -187500.02, -181556.89, -181827.17, -187500.02, 35386.12, 187500.00, -187500.02, 187500.00
1190, -187500.02, -181593.41, -181839.02, -187500.02, 35400.07, 187500.00, -187500.02, 187500.00
1191, -187500.02, -181597.41, -181906.63, -187500.02, 35410.32, 187500.00, -187500.02, 187500.00
1192, -187500.02, -181589.52, -181941.31, -187500.02, 35393.00, 187500.00, -187500.02, 187500.00
1193, -187500.02, -181563.30, -181872.86, -187500.02, 35371.75, 187500.00, -187500.02, 187500.00
1194, -187500.02, -181521.13, -181811.67, -187500.02, 35358.07, 187500.00, -187500.02, 187500.00
1195, -187500.02, -181545.48, -181749.11, -187500.02, 35347.58, 187500.00, -187500.02, 187500.00
1196, -187500.02, -181567.34, -181658.09, -187500.02, 35325.61, 187500.00, -187500.02, 187500.00
1197, -187500.02, -181530.22, -181519.73, -187500.02, 35313.16, 187500.00, -187500.02, 187500.00
1198, -187500.02, -181524.20, -181500.11, -187500.02, 35321.86, 187500.00, -187500.02, 187500.00
1199, -187500.02, -181525.42, -181510.59, -187500.02, 35340.10, 187500.00, -187500.02, 187500.00
1200, -187500.02, -181551.75, -181515.67, -187500.02, 35348.70, 187500.00, -187500.02, 187500.00
1201, -187500.02, -181505.38, -181516.52, -187500.02, 35352.37, 187500.00, -187500.02, 187500.00
1202, -187500.02, -181464.13, -181523.63, -187500.02, 35362.40, 187500.00, -187500.02, 187500.00
1203, -187500.02, -181453.16, -181535.98, -187500.02, 35382.30, 187500.00, -187500.02, 187500.00
1204, -187500.02, -181487.95, -181547.03, -187500.02, 35395.82, 187500.00, -187500.02, 187500.00
1205, -187500.02, -181441.33, -181558.13, -187500.02, 35400.00, 187500.00, -187500.02, 187500.00
1206, -187500.02, -181481.31, -181570.28, -187500.02, 35412.56, 187500.00, -187500.02, 187500.00
1207, -187500.02, -181471.81, -181575.94, -187500.02, 35432.86, 187500.00, -187500.02, 187500.00
1208, -187500.02, -181487.53, -181578.91, -187500.02, 35449.17, 187500.00, -187500.02, 187500.00
1209, -187500.02, -181510.75, -181587.00, -187500.02, 35456.88, 187500.00, -187500.02, 187500.00
1210, -187500.02, -181454.97, -181596.11, -187500.02, 35466.54, 187500.00, -187500.02, 187500.00
1211, -187500.02, -181402.81, -181603.20, -187500.02, 35481.14, 187500.00, -187500.02, 187500.00
1212, -187500.02, -181425.77, -181612.33, -187500.02, 35498.35, 187500.00, -187500.02, 187500.00
1213, -187500.02, -181417.34, -181622.00, -187500.02, 35503.67, 187500.00, -187500.02, 187500.00
1214, -187500.02, -181430.83, -181625.91, -187500.02, 35510.91, 187500.00, -187500.02, 187500.00
1215, -187500.02, -181406.39, -181632.70, -187500.02, 35526.60, 187500.00, -187500.02, 187500.00
1216, -187500.02, -181457.22, -181637.59, -187500.02, 35546.00, 187500.00, -187500.02, 187500.00
1217, -187500.02, -181464.84, -181643.97, -187500.02, 35556.44, 187500.00, -187500.02, 187500.00
1218, -187500.02, -181433.81, -181655.27, -187500.02, 35564.89, 187500.00, -187500.02, 187500.00
1219, -187500.02, -181399.11, -181666.84, -187500.02, 35578.88, 187500.00, -187500.02, 187500.00
1220, -187500.02, -181386.13, -181674.69, -187500.02, 35597.48, 187500.00, -187500.02, 187500.00
1221, -187500.02, -181449.05, -181679.58, -187500.02, 35605.34, 187500.00, -187500.02, 187500.00
1222, -187500.02, -181449.88, -181687.27, -187500.02, 35610.30, 187500.00, -187500.02, 187500.00
1223, -187500.02, -181423.88, -181694.63, -187500.02, 35621.50, 187500.00, -187500.02, 187500.00
1224, -187500.02, -181414.02, -181699.58, -187500.02, 35638.89, 187500.00, -187500.02, 187500.00
1225, -187500.02, -181470.50, -181704.44, -187500.02, 35649.54, 187500.00, -187500.02, 187500.00
1226, -187500.02, -181447.41, -181761.56, -187500.02, 35652.71, 187500.00, -187500.02, 187500.00
1227, -187500.02, -181437.23, -181817.55, -187500.02, 35648.26, 187500.00, -187500.02, 187500.00
1228, -187500.02, -181381.72, -181759.66, -187500.02, 35638.94, 187500.00, -187500.02, 187500.00
1229, -187500.02, -181388.45, -181692.91, -187500.02, 35622.96, 187500.00, -187500.02, 187500.00
1230, -187500.02, -181405.20, -181625.00, -187500.02, 35599.29, 187500.00, -187500.02, 187500.00
1231, -187500.02, -181356.08, -181549.88, -187500.02, 35580.15, 187500.00, -187500.02, 187500.00
1232, -187500.02, -181369.16, -181405.50, -187500.02, 35574.59, 187500.00, -187500.02, 187500.00
1233, -187500.02, -181329.09, -181325.59, -187500.02, 35586.50, 187500.00, -187500.02, 187500.00
1234, -187500.02, -181352.38, -181333.84, -187500.02, 35591.84, 187500.00, -187500.02, 187500.00
1235, -187500.02, -181337.23, -181346.98, -187500.02, 35601.16, 187500.00, -187500.02, 187500.00
