%OpenBCI Raw EEG Data
%
%Sample Rate = 250.0 Hz
%First Column = SampleIndex
%Other Columns = EEG data in microvolts
32404, -187500.02, -187500.02, -187500.02, 0.00, 0.00, 0.00, 0.00, 0.00
32405, -187500.02, -187500.02, -187500.02, 0.00, 0.00, 0.00, 0.00, 0.00
32404, -187500.02, -187500.02, -187500.02, 0.00, 0.00, 0.00, 0.00, 0.00
32405, -187500.02, -187500.02, -187500.02, 0.00, 0.00, 0.00, 0.00, 0.00
32406, -187500.02, -187500.02, -187500.02, 0.00, 0.00, 0.00, 0.00, 0.00
32407, -187500.02, -187500.02, -187500.02, 0.00, 0.00, 0.00, 0.00, 0.00
32408, -187500.02, -187500.02, -187500.02, 0.00, 0.00, 0.00, 0.00, 0.00
32409, -187500.02, -187500.02, -187500.02, 0.00, 0.00, 0.00, 0.00, 0.00
32410, -187500.02, -187500.02, -187500.02, 0.00, 0.00, 0.00, 0.00, 0.00
32411, -187500.02, -187500.02, -187500.02, 0.00, 0.00, 0.00, 0.00, 0.00
32412, -187500.02, -187500.02, -187500.02, 0.00, 0.00, 0.00, 0.00, 0.00
1, -187500.02, -187500.02, -187500.02, -187500.02, 70099.90, 175402.31, -187500.02, 187500.00
2, -187500.02, -187500.02, -187500.02, -187500.02, 69954.54, 175420.08, -187500.02, 187500.00
3, -187500.02, -187500.02, -187500.02, -187500.02, 69785.18, 175431.95, -187500.02, 187500.00
4, -187500.02, -187500.02, -187500.02, -187500.02, 69623.02, 175444.98, -187500.02, 187500.00
5, -187500.02, -187500.02, -187500.02, -187500.02, 69464.52, 175456.41, -187500.02, 187500.00
6, -187500.02, -187500.02, -187500.02, -187500.02, 69322.73, 175473.61, -187500.02, 187500.00
7, -187500.02, -187500.02, -187500.02, -187500.02, 69181.13, 175491.72, -187500.02, 187500.00
8, -187500.02, -187500.02, -187500.02, -187500.02, 69029.36, 175505.20, -187500.02, 187500.00
9, -187500.02, -187500.02, -187500.02, -187500.02, 68874.23, 175521.50, -187500.02, 187500.00
10, -187500.02, -187500.02, -187500.02, -187500.02, 68735.48, 175545.41, -187500.02, 187500.00
11, -187500.02, -187500.02, -187500.02, -187500.02, 68596.70, 175563.33, -187500.02, 187500.00
12, -187500.02, -187500.02, -187500.02, -187500.02, 68445.02, 175574.25, -187500.02, 187500.00
13, -187500.02, -187500.02, -187500.02, -187500.02, 68287.30, 175588.02, -187500.02, 187500.00
14, -187500.02, -187500.02, -187500.02, -187500.02, 68143.34, 175605.58, -187500.02, 187500.00
15, -187500.02, -187500.02, -187500.02, -187500.02, 68005.20, 175621.67, -187500.02, 187500.00
16, -187500.02, -187500.02, -187500.02, -187500.02, 67859.18, 175637.45, -187500.02, 187500.00
17, -187500.02, -187500.02, -187500.02, -187500.02, 67710.85, 175661.70, -187500.02, 187500.00
18, -187500.02, -187500.02, -187500.02, -187500.02, 67569.77, 175682.38, -187500.02, 187500.00
19, -187500.02, -187500.02, -187500.02, -187500.02, 67433.65, 175695.80, -187500.02, 187500.00
20, -187500.02, -187500.02, -187500.02, -187500.02, 67289.45, 175714.48, -187500.02, 187500.00
21, -187500.02, -187500.02, -187500.02, -187500.02, 67136.05, 175729.05, -187500.02, 187500.00
22, -187500.02, -187500.02, -187500.02, -187500.02, 66986.77, 175744.41, -187500.02, 187500.00
23, -187500.02, -187500.02, -187500.02, -187500.02, 66850.63, 175758.78, -187500.02, 187500.00
24, -187500.02, -187500.02, -187500.02, -187500.02, 66711.91, 175777.53, -187500.02, 187500.00
25, -187500.02, -187500.02, -187500.02, -187500.02, 66563.60, 175794.83, -187500.02, 187500.00
26, -187500.02, -187500.02, -187500.02, -187500.02, 66414.56, 175810.09, -187500.02, 187500.00
27, -187500.02, -187500.02, -187500.02, -187500.02, 66280.90, 175827.63, -187500.02, 187500.00
28, -187500.02, -187500.02, -187500.02, -187500.02, 66142.43, 175838.63, -187500.02, 187500.00
29, -187500.02, -187500.02, -187500.02, -187500.02, 65992.00, 175848.45, -187500.02, 187500.00
30, -187500.02, -187500.02, -187500.02, -187500.02, 65839.92, 175858.25, -187500.02, 187500.00
31, -187500.02, -187500.02, -187500.02, -187500.02, 65706.20, 175877.22, -187500.02, 187500.00
32, -187500.02, -187500.02, -187500.02, -187500.02, 65574.30, 175899.03, -187500.02, 187500.00
33, -187500.02, -187500.02, -187500.02, -187500.02, 65432.65, 175922.22, -187500.02, 187500.00
34, -187500.02, -187500.02, -187500.02, -187500.02, 65284.08, 175942.73, -187500.02, 187500.00
35, -187500.02, -187500.02, -187500.02, -187500.02, 65150.08, 175965.16, -187500.02, 187500.00
36, -187500.02, -187500.02, -187500.02, -187500.02, 65019.41, 175982.75, -187500.02, 187500.00
37, -187500.02, -187500.02, -187500.02, -187500.02, 64876.00, 175993.25, -187500.02, 187500.00
38, -187500.02, -187500.02, -187500.02, -187500.02, 64725.98, 176001.77, -187500.02, 187500.00
39, -187500.02, -187500.02, -187500.02, -187500.02, 64589.48, 176016.66, -187500.02, 187500.00
40, -187500.02, -187500.02, -187500.02, -187500.02, 64462.99, 176035.42, -187500.02, 187500.00
41, -187500.02, -187500.02, -187500.02, -187500.02, 64327.89, 176056.48, -187500.02, 187500.00
42, -187500.02, -187500.02, -187500.02, -187500.02, 64179.10, 176070.11, -187500.02, 187500.00
43, -187500.02, -187500.02, -187500.02, -187500.02, 64039.38, 176084.20, -187500.02, 187500.00
44, -187500.02, -187500.02, -187500.02, -187500.02, 63913.49, 176104.72, -187500.02, 187500.00
45, -187500.02, -187500.02, -187500.02, -187500.02, 63777.71, 176119.53, -187500.02, 187500.00
46, -187500.02, -187500.02, -187500.02, -187500.02, 63635.04, 176137.84, -187500.02, 187500.00
47, -187500.02, -187500.02, -187500.02, -187500.02, 63494.78, 176155.50, -187500.02, 187500.00
48, -187500.02, -187500.02, -187500.02, -187500.02, 63366.99, 176169.69, -187500.02, 187500.00
49, -187500.02, -187500.02, -187500.02, -187500.02, 63234.13, 176184.92, -187500.02, 187500.00
50, -187500.02, -187500.02, -187500.02, -187500.02, 63089.63, 176196.98, -187500.02, 187500.00
51, -187500.02, -187500.02, -187500.02, -187500.02, 62948.59, 176216.52, -187500.02, 187500.00
52, -187500.02, -187500.02, -187500.02, -187500.02, 62821.72, 176235.20, -187500.02, 187500.00
53, -187500.02, -187500.02, -187500.02, -187500.02, 62693.20, 176254.88, -187500.02, 187500.00
54, -187500.02, -187500.02, -187500.02, -187500.02, 62554.11, 176270.08, -187500.02, 187500.00
55, -187500.02, -187500.02, -187500.02, -187500.02, 62409.09, 176277.47, -187500.02, 187500.00
56, -187500.02, -187500.02, -187500.02, -187500.02, 62281.79, 176292.38, -187500.02, 187500.00
57, -187500.02, -187500.02, -187500.02, -187500.02, 62162.03, 176317.55, -187500.02, 187500.00
58, -187500.02, -187500.02, -187500.02, -187500.02, 62047.75, 176359.86, -187500.02, 187500.00
59, -187500.02, -187500.02, -187500.02, -187500.02, 61935.48, 176403.88, -187500.02, 187500.00
60, -187500.02, -187500.02, -187500.02, -187500.02, 61836.28, 176444.39, -187500.02, 187500.00
61, -187500.02, -187500.02, -187500.02, -187500.02, 61744.73, 176493.45, -187500.02, 187500.00
62, -187500.02, -187500.02, -187500.02, -187500.02, 61644.48, 176544.70, -187500.02, 187500.00
63, -187500.02, -187500.02, -187500.02, -187500.02, 61533.79, 176590.38, -187500.02, 187500.00
64, -187500.02, -187500.02, -187500.02, -187500.02, 61431.29, 176632.20, -187500.02, 187500.00
65, -187500.02, -187500.02, -187500.02, -187500.02, 61340.34, 176679.25, -187500.02, 187500.00
66, -187500.02, -187500.02, -187500.02, -187500.02, 61242.17, 176729.92, -187500.02, 187500.00
67, -187500.02, -187500.02, -187500.02, -187500.02, 61131.66, 176773.48, -187500.02, 187500.00
68, -187500.02, -187500.02, -187500.02, -187500.02, 61028.93, 176816.44, -187500.02, 187500.00
69, -187500.02, -187500.02, -187500.02, -187500.02, 60936.96, 176856.73, -187500.02, 187500.00
70, -187500.02, -187500.02, -187500.02, -187500.02, 60841.02, 176902.83, -187500.02, 187500.00
71, -187500.02, -187500.02, -187500.02, -187500.02, 60734.89, 176950.75, -187500.02, 187500.00
72, -187500.02, -187500.02, -187500.02, -187500.02, 60630.49, 176995.50, -187500.02, 187500.00
73, -187500.02, -187500.02, -187500.02, -187500.02, 60544.48, 177047.52, -187500.02, 187500.00
74, -187500.02, -187500.02, -187500.02, -187500.02, 60452.21, 177093.42, -187500.02, 187500.00
75, -187500.02, -187500.02, -187500.02, -187500.02, 60348.70, 177135.80, -187500.02, 187500.00
76, -187500.02, -187500.02, -187500.02, -187500.02, 60243.63, 177177.28, -187500.02, 187500.00
77, -187500.02, -187500.02, -187500.02, -187500.02, 60151.40, 177218.39, -187500.02, 187500.00
78, -187500.02, -187500.02, -187500.02, -187500.02, 60058.91, 177258.72, -187500.02, 187500.00
79, -187500.02, -187500.02, -187500.02, -187500.02, 59957.05, 177304.11, -187500.02, 187500.00
80, -187500.02, -187500.02, -187500.02, -187500.02, 59852.11, 177349.47, -187500.02, 187500.00
81, -187500.02, -187500.02, -187500.02, -187500.02, 59765.23, 177399.39, -187500.02, 187500.00
82, -187500.02, -187500.02, -187500.02, -187500.02, 59677.19, 177446.53, -187500.02, 187500.00
83, -187500.02, -187500.02, -187500.02, -187500.02, 59578.77, 177487.63, -187500.02, 187500.00
84, -187500.02, -187500.02, -187500.02, -187500.02, 59476.43, 177530.56, -187500.02, 187500.00
85, -187500.02, -187500.02, -187500.02, -187500.02, 59384.76, 177572.95, -187500.02, 187500.00
86, -187500.02, -187500.02, -187500.02, -187500.02, 59296.83, 177615.38, -187500.02, 187500.00
87, -187500.02, -187500.02, -187500.02, -187500.02, 59201.41, 177663.03, -187500.02, 187500.00
88, -187500.02, -187500.02, -187500.02, -187500.02, 59096.58, 177710.69, -187500.02, 187500.00
89, -187500.02, -187500.02, -187500.02, -187500.02, 59003.21, 177761.05, -187500.02, 187500.00
90, -187500.02, -187500.02, -187500.02, -187500.02, 58918.05, 177806.16, -187500.02, 187500.00
91, -187500.02, -187500.02, -187500.02, -187500.02, 58825.99, 177848.27, -187500.02, 187500.00
92, -187500.02, -187500.02, -187500.02, -187500.02, 58725.27, 177890.33, -187500.02, 187500.00
93, -187500.02, -187500.02, -187500.02, -187500.02, 58630.14, 177938.08, -187500.02, 187500.00
94, -187500.02, -187500.02, -187500.02, -187500.02, 58547.75, 177984.52, -187500.02, 187500.00
95, -187500.02, -187500.02, -187500.02, -187500.02, 58456.71, 178025.14, -187500.02, 187500.00
96, -187500.02, -187500.02, -187500.02, -187500.02, 58356.54, 178069.14, -187500.02, 187500.00
97, -187500.02, -187500.02, -187500.02, -187500.02, 58261.45, 178118.61, -187500.02, 187500.00
98, -187500.02, -187500.02, -187500.02, -187500.02, 58176.87, 178158.17, -187500.02, 187500.00
99, -187500.02, -187500.02, -187500.02, -187500.02, 58089.72, 178205.05, -187500.02, 187500.00
100, -187500.02, -187500.02, -187500.02, -187500.02, 57991.69, 178251.78, -187500.02, 187500.00
101, -187500.02, -187500.02, -187500.02, -187500.02, 57889.65, 178292.59, -187500.02, 187500.00
102, -187500.02, -187500.02, -187500.02, -187500.02, 57805.39, 178340.09, -187500.02, 187500.00
103, -187500.02, -187500.02, -187500.02, -187500.02, 57719.54, 178383.64, -187500.02, 187500.00
104, -187500.02, -187500.02, -187500.02, -187500.02, 57624.05, 178428.83, -187500.02, 187500.00
105, -187500.02, -187500.02, -187500.02, -187500.02, 57523.73, 178470.02, -187500.02, 187500.00
106, -187500.02, -187500.02, -187500.02, -187500.02, 57437.66, 178514.61, -187500.02, 187500.00
107, -187500.02, -187500.02, -187500.02, -187500.02, 57355.71, 178562.67, -187500.02, 187500.00
108, -187500.02, -187500.02, -187500.02, -187500.02, 57266.75, 178612.36, -187500.02, 187500.00
109, -187500.02, -187500.02, -187500.02, -187500.02, 57163.76, 178649.86, -187500.02, 187500.00
110, -187500.02, -187500.02, -187500.02, -187500.02, 57073.25, 178693.30, -187500.02, 187500.00
111, -187500.02, -187500.02, -187500.02, -187500.02, 56992.72, 178741.22, -187500.02, 187500.00
112, -187500.02, -187500.02, -187500.02, -187500.02, 56906.36, 178789.78, -187500.02, 187500.00
113, -187500.02, -187500.02, -187500.02, -187500.02, 56807.98, 178833.23, -187500.02, 187500.00
114, -187500.02, -187500.02, -187500.02, -187500.02, 56717.68, 178880.72, -187500.02, 187500.00
115, -187500.02, -187500.02, -187500.02, -187500.02, 56639.05, 178928.80, -187500.02, 187500.00
116, -187500.02, -187500.02, -187500.02, -187500.02, 56550.27, 178970.70, -187500.02, 187500.00
117, -187500.02, -187500.02, -187500.02, -187500.02, 56451.86, 179013.30, -187500.02, 187500.00
118, -187500.02, -187500.02, -187500.02, -187500.02, 56361.73, 179060.22, -187500.02, 187500.00
119, -187500.02, -187500.02, -187500.02, -187500.02, 56285.69, 179111.30, -187500.02, 187500.00
120, -187500.02, -187500.02, -187500.02, -187500.02, 56201.71, 179158.02, -187500.02, 187500.00
121, -187500.02, -187500.02, -187500.02, -187500.02, 56108.71, 179200.59, -187500.02, 187500.00
122, -187500.02, -187500.02, -187500.02, -187500.02, 56014.95, 179243.14, -187500.02, 187500.00
123, -187500.02, -187500.02, -187500.02, -187500.02, 55938.55, 179291.00, -187500.02, 187500.00
124, -187500.02, -187500.02, -187500.02, -187500.02, 55859.42, 179337.72, -187500.02, 187500.00
125, -187500.02, -187500.02, -187500.02, -187500.02, 55765.14, 179380.77, -187500.02, 187500.00
126, -187500.02, -187500.02, -187500.02, -187500.02, 55671.55, 179426.67, -187500.02, 187500.00
127, -187500.02, -187500.02, -187500.02, -187500.02, 55591.83, 179471.84, -187500.02, 187500.00
128, -187500.02, -187500.02, -187500.02, -187500.02, 55512.03, 179517.38, -187500.02, 187500.00
129, -187500.02, -187500.02, -187500.02, -187500.02, 55425.64, 179564.39, -187500.02, 187500.00
130, -187500.02, -187500.02, -187500.02, -187500.02, 55331.81, 179605.88, -187500.02, 187500.00
131, -187500.02, -187500.02, -187500.02, -187500.02, 55253.22, 179649.56, -187500.02, 187500.00
132, -187500.02, -187500.02, -187500.02, -187500.02, 55179.77, 179697.77, -187500.02, 187500.00
133, -187500.02, -187500.02, -187500.02, -187500.02, 55093.65, 179739.61, -187500.02, 187500.00
134, -187500.02, -187500.02, -187500.02, -187500.02, 54998.72, 179781.56, -187500.02, 187500.00
135, -187500.02, -187500.02, -187500.02, -187500.02, 54915.98, 179827.36, -187500.02, 187500.00
136, -187500.02, -187500.02, -187500.02, -187500.02, 54842.60, 179877.36, -187500.02, 187500.00
137, -187500.02, -187500.02, -187500.02, -187500.02, 54757.41, 179919.84, -187500.02, 187500.00
138, -187500.02, -187500.02, -187500.02, -187500.02, 54663.11, 179962.25, -187500.02, 187500.00
139, -187500.02, -187500.02, -187500.02, -187500.02, 54577.06, 180007.11, -187500.02, 187500.00
140, -187500.02, -187500.02, -187500.02, -187500.02, 54503.36, 180056.38, -187500.02, 187500.00
141, -187500.02, -187500.02, -187500.02, -187500.02, 54421.55, 180100.98, -187500.02, 187500.00
142, -187500.02, -187500.02, -187500.02, -187500.02, 54329.27, 180143.67, -187500.02, 187500.00
143, -187500.02, -187500.02, -187500.02, -187500.02, 54240.53, 180187.00, -187500.02, 187500.00
144, -187500.02, -187500.02, -187500.02, -187500.02, 54166.63, 180231.34, -187500.02, 187500.00
145, -187500.02, -187500.02, -187500.02, -187500.02, 54090.53, 180280.52, -187500.02, 187500.00
146, -187500.02, -187500.02, -187500.02, -187500.02, 54003.38, 180324.88, -187500.02, 187500.00
147, -187500.02, -187500.02, -187500.02, -187500.02, 53917.03, 180369.25, -187500.02, 187500.00
148, -187500.02, -187500.02, -187500.02, -187500.02, 53845.98, 180416.09, -187500.02, 187500.00
149, -187500.02, -187500.02, -187500.02, -187500.02, 53768.41, 180462.08, -187500.02, 187500.00
150, -187500.02, -187500.02, -187500.02, -187500.02, 53681.36, 180507.47, -187500.02, 187500.00
151, -187500.02, -187500.02, -187500.02, -187500.02, 53591.30, 180551.80, -187500.02, 187500.00
152, -187500.02, -187500.02, -187500.02, -187500.02, 53516.22, 180593.55, -187500.02, 187500.00
153, -187500.02, -187500.02, -187500.02, -187500.02, 53444.88, 180641.41, -187500.02, 187500.00
154, -187500.02, -187500.02, -187500.02, -187500.02, 53361.97, 180685.91, -187500.02, 187500.00
155, -187500.02, -187500.02, -187500.02, -187500.02, 53272.77, 180732.25, -187500.02, 187500.00
156, -187500.02, -187500.02, -187500.02, -187500.02, 53196.48, 180782.33, -187500.02, 187500.00
157, -187500.02, -187500.02, -187500.02, -187500.02, 53123.61, 180828.94, -187500.02, 187500.00
158, -187500.02, -187500.02, -187500.02, -187500.02, 53042.16, 180872.36, -187500.02, 187500.00
159, -187500.02, -187500.02, -187500.02, -187500.02, 52953.58, 180917.36, -187500.02, 187500.00
160, -187500.02, -187500.02, -187500.02, -187500.02, 52873.45, 180962.75, -187500.02, 187500.00
161, -187500.02, -187500.02, -187500.02, -187500.02, 52805.30, 181014.05, -187500.02, 187500.00
162, -187500.02, -187500.02, -187500.02, -187500.02, 52727.07, 181057.91, -187500.02, 187500.00
163, -187500.02, -187500.02, -187500.02, -187500.02, 52639.03, 181101.16, -187500.02, 187500.00
164, -187500.02, -187500.02, -187500.02, -187500.02, 52558.58, 181144.47, -187500.02, 187500.00
165, -187500.02, -187500.02, -187500.02, -187500.02, 52490.25, 181192.23, -187500.02, 187500.00
166, -187500.02, -187500.02, -187500.02, -187500.02, 52413.63, 181237.33, -187500.02, 187500.00
167, -187500.02, -187500.02, -187500.02, -187500.02, 52326.84, 181277.53, -187500.02, 187500.00
168, -187500.02, -187500.02, -187500.02, -187500.02, 52245.70, 181322.06, -187500.02, 187500.00
169, -187500.02, -187500.02, -187500.02, -187500.02, 52181.69, 181373.73, -187500.02, 187500.00
170, -187500.02, -187500.02, -187500.02, -187500.02, 52108.91, 181413.02, -187500.02, 187500.00
171, -187500.02, -187500.02, -187500.02, -187500.02, 52025.79, 181455.02, -187500.02, 187500.00
172, -187500.02, -187500.02, -187500.02, -187500.02, 51942.34, 181504.27, -187500.02, 187500.00
173, -187500.02, -187500.02, -187500.02, -187500.02, 51871.16, 181549.59, -187500.02, 187500.00
174, -187500.02, -187500.02, -187500.02, -187500.02, 51798.89, 181594.89, -187500.02, 187500.00
175, -187500.02, -187500.02, -187500.02, -187500.02, 51718.49, 181636.84, -187500.02, 187500.00
176, -187500.02, -187500.02, -187500.02, -187500.02, 51634.96, 181679.39, -187500.02, 187500.00
177, -187500.02, -187500.02, -187500.02, -187500.02, 51566.16, 181727.34, -187500.02, 187500.00
178, -187500.02, -187500.02, -187500.02, -187500.02, 51497.99, 181774.50, -187500.02, 187500.00
179, -187500.02, -187500.02, -187500.02, -187500.02, 51421.33, 181822.58, -187500.02, 187500.00
180, -187500.02, -187500.02, -187500.02, -187500.02, 51338.18, 181866.58, -187500.02, 187500.00
181, -187500.02, -187500.02, -187500.02, -187500.02, 51263.25, 181908.73, -187500.02, 187500.00
182, -187500.02, -187500.02, -187500.02, -187500.02, 51195.08, 181952.64, -187500.02, 187500.00
183, -187500.02, -187500.02, -187500.02, -187500.02, 51117.05, 181999.23, -187500.02, 187500.00
184, -187500.02, -187500.02, -187500.02, -187500.02, 51031.02, 182039.63, -187500.02, 187500.00
185, -187500.02, -187500.02, -187500.02, -187500.02, 50955.85, 182083.86, -187500.02, 187500.00
186, -187500.02, -187500.02, -187500.02, -187500.02, 50889.54, 182131.58, -187500.02, 187500.00
187, -187500.02, -187500.02, -187500.02, -187500.02, 50817.38, 182181.13, -187500.02, 187500.00
188, -187500.02, -187500.02, -187500.02, -187500.02, 50736.69, 182229.59, -187500.02, 187500.00
189, -187500.02, -187500.02, -187500.02, -187500.02, 50659.82, 182275.42, -187500.02, 187500.00
190, -187500.02, -187500.02, -187500.02, -187500.02, 50597.29, 182320.69, -187500.02, 187500.00
191, -187500.02, -187500.02, -187500.02, -187500.02, 50528.26, 182364.86, -187500.02, 187500.00
192, -187500.02, -187500.02, -187500.02, -187500.02, 50450.93, 182408.88, -187500.02, 187500.00
193, -187500.02, -187500.02, -187500.02, -187500.02, 50375.85, 182458.05, -187500.02, 187500.00
194, -187500.02, -187500.02, -187500.02, -187500.02, 50312.48, 182505.00, -187500.02, 187500.00
195, -187500.02, -187500.02, -187500.02, -187500.02, 50245.02, 182549.86, -187500.02, 187500.00
196, -187500.02, -187500.02, -187500.02, -187500.02, 50166.61, 182588.84, -187500.02, 187500.00
197, -187500.02, -187500.02, -187500.02, -187500.02, 50084.31, 182631.83, -187500.02, 187500.00
198, -187500.02, -187500.02, -187500.02, -187500.02, 50018.73, 182680.23, -187500.02, 187500.00
199, -187500.02, -187500.02, -187500.02, -187500.02, 49953.04, 182726.94, -187500.02, 187500.00
200, -187500.02, -187500.02, -187500.02, -187500.02, 49878.68, 182770.78, -187500.02, 187500.00
201, -187500.02, -187500.02, -187500.02, -187500.02, 49800.55, 182815.81, -187500.02, 187500.00
202, -187500.02, -187500.02, -187500.02, -187500.02, 49735.60, 182863.06, -187500.02, 187500.00
203, -187500.02, -187500.02, -187500.02, -187500.02, 49674.87, 182911.50, -187500.02, 187500.00
204, -187500.02, -187500.02, -187500.02, -187500.02, 49602.12, 182949.06, -187500.02, 187500.00
205, -187500.02, -187500.02, -187500.02, -187500.02, 49522.59, 182989.56, -187500.02, 187500.00
206, -187500.02, -187500.02, -187500.02, -187500.02, 49456.96, 183038.34, -187500.02, 187500.00
207, -187500.02, -187500.02, -187500.02, -187500.02, 49396.71, 183085.70, -187500.02, 187500.00
208, -187500.02, -187500.02, -187500.02, -187500.02, 49325.34, 183128.17, -187500.02, 187500.00
209, -187500.02, -187500.02, -187500.02, -187500.02, 49247.22, 183172.56, -187500.02, 187500.00
210, -187500.02, -187500.02, -187500.02, -187500.02, 49170.30, 183209.67, -187500.02, 187500.00
211, -187500.02, -187500.02, -187500.02, -187500.02, 49087.63, 183237.66, -187500.02, 187500.00
212, -187500.02, -187500.02, -187500.02, -187500.02, 48989.99, 183252.63, -187500.02, 187500.00
213, -187500.02, -187500.02, -187500.02, -187500.02, 48882.23, 183265.50, -187500.02, 187500.00
214, -187500.02, -187500.02, -187500.02, -187500.02, 48778.75, 183279.31, -187500.02, 187500.00
215, -187500.02, -187500.02, -187500.02, -187500.02, 48697.95, 183301.58, -187500.02, 187500.00
216, -187500.02, -187500.02, -187500.02, -187500.02, 48630.38, 183344.72, -187500.02, 187500.00
217, -187500.02, -187500.02, -187500.02, -187500.02, 48557.80, 183391.86, -187500.02, 187500.00
218, -187500.02, -187500.02, -187500.02, -187500.02, 48485.25, 183440.11, -187500.02, 187500.00
219, -187500.02, -187500.02, -187500.02, -187500.02, 48427.45, 183485.75, -187500.02, 187500.00
220, -187500.02, -187500.02, -187500.02, -187500.02, 48366.56, 183531.84, -187500.02, 187500.00
221, -187500.02, -187500.02, -187500.02, -187500.02, 48292.17, 183575.30, -187500.02, 187500.00
222, -187500.02, -187500.02, -187500.02, -187500.02, 48217.07, 183618.59, -187500.02, 187500.00
223, -187500.02, -187500.02, -187500.02, -187500.02, 48157.41, 183662.42, -187500.02, 187500.00
224, -187500.02, -187500.02, -187500.02, -187500.02, 48098.96, 183710.72, -187500.02, 187500.00
225, -187500.02, -187500.02, -187500.02, -187500.02, 48030.84, 183755.31, -187500.02, 187500.00
226, -187500.02, -187500.02, -187500.02, -187500.02, 47956.87, 183801.16, -187500.02, 187500.00
227, -187500.02, -187500.02, -187500.02, -187500.02, 47896.61, 183846.52, -187500.02, 187500.00
228, -187500.02, -187500.02, -187500.02, -187500.02, 47840.00, 183894.75, -187500.02, 187500.00
229, -187500.02, -187500.02, -187500.02, -187500.02, 47770.64, 183937.58, -187500.02, 187500.00
230, -187500.02, -187500.02, -187500.02, -187500.02, 47695.40, 183980.20, -187500.02, 187500.00
231, -187500.02, -187500.02, -187500.02, -187500.02, 47629.53, 184023.61, -187500.02, 187500.00
232, -187500.02, -187500.02, -187500.02, -187500.02, 47576.04, 184071.03, -187500.02, 187500.00
233, -187500.02, -187500.02, -187500.02, -187500.02, 47516.32, 184115.84, -187500.02, 187500.00
234, -187500.02, -187500.02, -187500.02, -187500.02, 47444.71, 184156.67, -187500.02, 187500.00
235, -187500.02, -187500.02, -187500.02, -187500.02, 47381.92, 184203.72, -187500.02, 187500.00
236, -187500.02, -187500.02, -187500.02, -187500.02, 47330.76, 184253.56, -187500.02, 187500.00
237, -187500.02, -187500.02, -187500.02, -187500.02, 47270.14, 184298.11, -187500.02, 187500.00
238, -187500.02, -187500.02, -187500.02, -187500.02, 47199.42, 184342.19, -187500.02, 187500.00
239, -187500.02, -187500.02, -187500.02, -187500.02, 47132.41, 184389.44, -187500.02, 187500.00
240, -187500.02, -187500.02, -187500.02, -187500.02, 47078.18, 184435.44, -187500.02, 187500.00
241, -187500.02, -187500.02, -187500.02, -187500.02, 47018.64, 184479.98, -187500.02, 187500.00
242, -187500.02, -187500.02, -187500.02, -187500.02, 46948.68, 184523.05, -187500.02, 187500.00
243, -187500.02, -187500.02, -187500.02, -187500.02, 46878.67, 184562.17, -187500.02, 187500.00
244, -187500.02, -187500.02, -187500.02, -187500.02, 46826.55, 184609.58, -187500.02, 187500.00
245, -187500.02, -187500.02, -187500.02, -187500.02, 46770.33, 184655.48, -187500.02, 187500.00
246, -187500.02, -187500.02, -187500.02, -187500.02, 46703.99, 184695.41, -187500.02, 187500.00
247, -187500.02, -187500.02, -187500.02, -187500.02, 46634.01, 184735.89, -187500.02, 187500.00
248, -187500.02, -187500.02, -187500.02, -187500.02, 46580.36, 184783.75, -187500.02, 187500.00
249, -187500.02, -187500.02, -187500.02, -187500.02, 46528.53, 184832.52, -187500.02, 187500.00
250, -187500.02, -187500.02, -187500.02, -187500.02, 46468.52, 184878.06, -187500.02, 187500.00
251, -187500.02, -187500.02, -187500.02, -187500.02, 46400.01, 184915.80, -187500.02, 187500.00
252, -187500.02, -187500.02, -187500.02, -187500.02, 46343.05, 184956.50, -187500.02, 187500.00
253, -187500.02, -187500.02, -187500.02, -187500.02, 46290.08, 184996.06, -187500.02, 187500.00
254, -187500.02, -187500.02, -187500.02, -187500.02, 46226.82, 185036.63, -187500.02, 187500.00
255, -187500.02, -187500.02, -187500.02, -187500.02, 46155.70, 185075.64, -187500.02, 187500.00
256, -187500.02, -187500.02, -187500.02, -187500.02, 46095.44, 185125.09, -187500.02, 187500.00
257, -187500.02, -187500.02, -187500.02, -187500.02, 46046.45, 185177.56, -187500.02, 187500.00
258, -187500.02, -187500.02, -187500.02, -187500.02, 45989.38, 185222.11, -187500.02, 187500.00
259, -187500.02, -187500.02, -187500.02, -187500.02, 45921.05, 185262.05, -187500.02, 187500.00
260, -187500.02, -187500.02, -187500.02, -187500.02, 45858.91, 185301.45, -187500.02, 187500.00
261, -187500.02, -187500.02, -187500.02, -187500.02, 45809.54, 185344.30, -187500.02, 187500.00
262, -187500.02, -187500.02, -187500.02, -187500.02, 45752.52, 185389.39, -187500.02, 187500.00
263, -187500.02, -187500.02, -187500.02, -187500.02, 45684.75, 185434.48, -187500.02, 187500.00
264, -187500.02, -187500.02, -187500.02, -187500.02, 45604.73, 185520.28, -187500.02, 187500.00
265, -187500.02, -187500.02, -187500.02, -187500.02, 45514.16, 185620.97, -187500.02, 187500.00
266, -187500.02, -187500.02, -187500.02, -187500.02, 45415.46, 185715.67, -187500.02, 187500.00
267, -187500.02, -187500.02, -187500.02, -187500.02, 45303.43, 185804.19, -187500.02, 187500.00
268, -187500.02, -187500.02, -187500.02, -187500.02, 45189.84, 185885.80, -187500.02, 187500.00
269, -187500.02, -187500.02, -187500.02, -187500.02, 45092.96, 185978.17, -187500.02, 187500.00
270, -187500.02, -187500.02, -187500.02, -187500.02, 44995.89, 186072.36, -187500.02, 187500.00
271, -187500.02, -187500.02, -187500.02, -187500.02, 44889.88, 186165.50, -187500.02, 187500.00
272, -187500.02, -187500.02, -187500.02, -187500.02, 44776.51, 186260.05, -187500.02, 187500.00
273, -187500.02, -187500.02, -187500.02, -187500.02, 44676.78, 186350.08, -187500.02, 187500.00
274, -187500.02, -187500.02, -187500.02, -187500.02, 44580.64, 186443.81, -187500.02, 187500.00
275, -187500.02, -187500.02, -187500.02, -187500.02, 44474.23, 186536.34, -187500.02, 187500.00
276, -187500.02, -187500.02, -187500.02, -187500.02, 44359.14, 186621.38, -187500.02, 187500.00
277, -187500.02, -187500.02, -187500.02, -187500.02, 44247.02, 186696.53, -187500.02, 187500.00
278, -187500.02, -187500.02, -187500.02, -187500.02, 44128.76, 186764.64, -187500.02, 187500.00
279, -187500.02, -187500.02, -187500.02, -187500.02, 43997.44, 186832.17, -187500.02, 187500.00
280, -187500.02, -187500.02, -187500.02, -187500.02, 43858.59, 186895.41, -187500.02, 187500.00
281, -187500.02, -187500.02, -187500.02, -187500.02, 43729.51, 186959.39, -187500.02, 187500.00
282, -187500.02, -187500.02, -187500.02, -187500.02, 43608.09, 187022.20, -187500.02, 187500.00
283, -187500.02, -187500.02, -187500.02, -187500.02, 43479.46, 187087.97, -187500.02, 187500.00
284, -187500.02, -187500.02, -187500.02, -187500.02, 43353.40, 187160.69, -187500.02, 187500.00
285, -187500.02, -187500.02, -187500.02, -187500.02, 43246.67, 187249.81, -187500.02, 187500.00
286, -187500.02, -187500.02, -187500.02, -187500.02, 43156.37, 187337.58, -187500.02, 187500.00
287, -187500.02, -187500.02, -187500.02, -187500.02, 43061.44, 187427.22, -187500.02, 187500.00
288, -187500.02, -187500.02, -187500.02, -187500.02, 42956.50, 187500.00, -187500.02, 187500.00
289, -187500.02, -187500.02, -187500.02, -187500.02, 42852.72, 187500.00, -187500.02, 187500.00
290, -187500.02, -187500.02, -187500.02, -187500.02, 42764.00, 187500.00, -187500.02, 187500.00
291, -187500.02, -187500.02, -187500.02, -187500.02, 42670.57, 187500.00, -187500.02, 187500.00
292, -187500.02, -187500.02, -187500.02, -187500.02, 42564.89, 187500.00, -187500.02, 187500.00
293, -187500.02, -187500.02, -187500.02, -187500.02, 42455.57, 187500.00, -187500.02, 187500.00
294, -187500.02, -187500.02, -187500.02, -187500.02, 42365.67, 187500.00, -187500.02, 187500.00
295, -187500.02, -187500.02, -187500.02, -187500.02, 42274.93, 187500.00, -187500.02, 187500.00
296, -187500.02, -187500.02, -187500.02, -187500.02, 42172.02, 187500.00, -187500.02, 187500.00
297, -187500.02, -187500.02, -187500.02, -187500.02, 42065.24, 187500.00, -187500.02, 187500.00
298, -187500.02, -187500.02, -187500.02, -187500.02, 41972.55, 187500.00, -187500.02, 187500.00
299, -187500.02, -187500.02, -187500.02, -187500.02, 41886.32, 187500.00, -187500.02, 187500.00
300, -187500.02, -187500.02, -187500.02, -187500.02, 41787.68, 187500.00, -187500.02, 187500.00
301, -187500.02, -187500.02, -187500.02, -187500.02, 41663.83, 187500.00, -187500.02, 187500.00
302, -187500.02, -187500.02, -187500.02, -187500.02, 41538.10, 187500.00, -187500.02, 187500.00
303, -187500.02, -187500.02, -187500.02, -187500.02, 41420.33, 187500.00, -187500.02, 187500.00
304, -187500.02, -187500.02, -187500.02, -187500.02, 41294.04, 187500.00, -187500.02, 187500.00
305, -187500.02, -187500.02, -187500.02, -187500.02, 41158.43, 187500.00, -187500.02, 187500.00
306, -187500.02, -187500.02, -187500.02, -187500.02, 41032.53, 187500.00, -187500.02, 187500.00
307, -187500.02, -187500.02, -187500.02, -187500.02, 40922.85, 187500.00, -187500.02, 187500.00
308, -187500.02, -187500.02, -187500.02, -187500.02, 40822.13, 187500.00, -187500.02, 187500.00
309, -187500.02, -187500.02, -187500.02, -187500.02, 40721.19, 187500.00, -187500.02, 187500.00
310, -187500.02, -187500.02, -187500.02, -187500.02, 40623.89, 187500.00, -187500.02, 187500.00
311, -187500.02, -187500.02, -187500.02, -187500.02, 40542.78, 187500.00, -187500.02, 187500.00
312, -187500.02, -187500.02, -187500.02, -187500.02, 40455.45, 187500.00, -187500.02, 187500.00
313, -187500.02, -187500.02, -187500.02, -187500.02, 40359.18, 187500.00, -187500.02, 187500.00
314, -187500.02, -187500.02, -187500.02, -187500.02, 40260.72, 187500.00, -187500.02, 187500.00
315, -187500.02, -187500.02, -187500.02, -187500.02, 40176.68, 187500.00, -187500.02, 187500.00
316, -187500.02, -187500.02, -187500.02, -187500.02, 40087.72, 187500.00, -187500.02, 187500.00
317, -187500.02, -187500.02, -187500.02, -187500.02, 39990.53, 187500.00, -187500.02, 187500.00
318, -187500.02, -187500.02, -187500.02, -187500.02, 39891.05, 187500.00, -187500.02, 187500.00
319, -187500.02, -187500.02, -187500.02, -187500.02, 39806.51, 187500.00, -187500.02, 187500.00
320, -187500.02, -187500.02, -187500.02, -187500.02, 39724.28, 187500.00, -187500.02, 187500.00
321, -187500.02, -187500.02, -187500.02, -187500.02, 39629.82, 187500.00, -187500.02, 187500.00
322, -187500.02, -187500.02, -187500.02, -187500.02, 39529.86, 187500.00, -187500.02, 187500.00
323, -187500.02, -187500.02, -187500.02, -187500.02, 39444.23, 187500.00, -187500.02, 187500.00
324, -187500.02, -187500.02, -187500.02, -187500.02, 39361.55, 187500.00, -187500.02, 187500.00
325, -187500.02, -187500.02, -187500.02, -187500.02, 39258.07, 187500.00, -187500.02, 187500.00
326, -187500.02, -187500.02, -187500.02, -187500.02, 39130.77, 187500.00, -187500.02, 187500.00
327, -187500.02, -187500.02, -187500.02, -187500.02, 39010.90, 187500.00, -187500.02, 187500.00
328, -187500.02, -187500.02, -187500.02, -187500.02, 38899.66, 187500.00, -187500.02, 187500.00
329, -187500.02, -187500.02, -187500.02, -187500.02, 38781.88, 187500.00, -187500.02, 187500.00
330, -187500.02, -187500.02, -187500.02, -187500.02, 38652.63, 187500.00, -187500.02, 187500.00
331, -187500.02, -187500.02, -187500.02, -187500.02, 38530.96, 187500.00, -187500.02, 187500.00
332, -187500.02, -187500.02, -187500.02, -187500.02, 38436.91, 187500.00, -187500.02, 187500.00
333, -187500.02, -187500.02, -187500.02, -187500.02, 38348.44, 187500.00, -187500.02, 187500.00
334, -187500.02, -187500.02, -187500.02, -187500.02, 38251.39, 187500.00, -187500.02, 187500.00
335, -187500.02, -187500.02, -187500.02, -187500.02, 38158.85, 187500.00, -187500.02, 187500.00
336, -187500.02, -187500.02, -187500.02, -187500.02, 38081.49, 187500.00, -187500.02, 187500.00
337, -187500.02, -187500.02, -187500.02, -187500.02, 38001.68, 187500.00, -187500.02, 187500.00
338, -187500.02, -187500.02, -187500.02, -187500.02, 37911.57, 187500.00, -187500.02, 187500.00
339, -187500.02, -187500.02, -187500.02, -187500.02, 37817.05, 187500.00, -187500.02, 187500.00
340, -187500.02, -187500.02, -187500.02, -187500.02, 37737.30, 187500.00, -187500.02, 187500.00
341, -187500.02, -187500.02, -187500.02, -187500.02, 37655.89, 187500.00, -187500.02, 187500.00
342, -187500.02, -187500.02, -187500.02, -187500.02, 37563.31, 187500.00, -187500.02, 187500.00
343, -187500.02, -187500.02, -187500.02, -187500.02, 37468.27, 187500.00, -187500.02, 187500.00
344, -187500.02, -187500.02, -187500.02, -187500.02, 37387.54, 187500.00, -187500.02, 187500.00
345, -187500.02, -187500.02, -187500.02, -187500.02, 37311.72, 187500.00, -187500.02, 187500.00
346, -187500.02, -187500.02, -187500.02, -187500.02, 37223.59, 187500.00, -187500.02, 187500.00
347, -187500.02, -187500.02, -187500.02, -187500.02, 37127.12, 187500.00, -187500.02, 187500.00
348, -187500.02, -187500.02, -187500.02, -187500.02, 37037.93, 187500.00, -187500.02, 187500.00
349, -187500.02, -187500.02, -187500.02, -187500.02, 36934.29, 187500.00, -187500.02, 187500.00
350, -187500.02, -187500.02, -187500.02, -187500.02, 36816.92, 187500.00, -187500.02, 187500.00
351, -187500.02, -187500.02, -187500.02, -187500.02, 36691.26, 187500.00, -187500.02, 187500.00
352, -187500.02, -187500.02, -187500.02, -187500.02, 36578.43, 187500.00, -187500.02, 187500.00
353, -187500.02, -187500.02, -187500.02, -187500.02, 36476.23, 187500.00, -187500.02, 187500.00
354, -187500.02, -187500.02, -187500.02, -187500.02, 36369.68, 187500.00, -187500.02, 187500.00
355, -187500.02, -187500.02, -187500.02, -187500.02, 36271.05, 187500.00, -187500.02, 187500.00
356, -187500.02, -187500.02, -187500.02, -187500.02, 36185.11, 187500.00, -187500.02, 187500.00
357, -187500.02, -187500.02, -187500.02, -187500.02, 36111.39, 187500.00, -187500.02, 187500.00
358, -187500.02, -187500.02, -187500.02, -187500.02, 36032.38, 187500.00, -187500.02, 187500.00
359, -187500.02, -187500.02, -187500.02, -187500.02, 35942.48, 187500.00, -187500.02, 187500.00
360, -187500.02, -187500.02, -187500.02, -187500.02, 35854.90, 187500.00, -187500.02, 187500.00
361, -187500.02, -187500.02, -187500.02, -187500.02, 35783.67, 187500.00, -187500.02, 187500.00
362, -187500.02, -187500.02, -187500.02, -187500.02, 35707.49, 187500.00, -187500.02, 187500.00
363, -187500.02, -187500.02, -187500.02, -187500.02, 35621.44, 187500.00, -187500.02, 187500.00
364, -187500.02, -187500.02, -187500.02, -187500.02, 35531.74, 187500.00, -187500.02, 187500.00
365, -187500.02, -187500.02, -187500.02, -187500.02, 35457.33, 187500.00, -187500.02, 187500.00
366, -187500.02, -187500.02, -187500.02, -187500.02, 35384.17, 187500.00, -187500.02, 187500.00
367, -187500.02, -187500.02, -187500.02, -187500.02, 35301.14, 187500.00, -187500.02, 187500.00
368, -187500.02, -187500.02, -187500.02, -187500.02, 35212.40, 187500.00, -187500.02, 187500.00
369, -187500.02, -187500.02, -187500.02, -187500.02, 35137.50, 187500.00, -187500.02, 187500.00
370, -187500.02, -187500.02, -187500.02, -187500.02, 35064.92, 187500.00, -187500.02, 187500.00
371, -187500.02, -187500.02, -187500.02, -187500.02, 34980.93, 187500.00, -187500.02, 187500.00
372, -187500.02, -187500.02, -187500.02, -187500.02, 34873.70, 187500.00, -187500.02, 187500.00
373, -187500.02, -187500.02, -187500.02, -187500.02, 34764.88, 187500.00, -187500.02, 187500.00
374, -187500.02, -187500.02, -187500.02, -187500.02, 34663.06, 187500.00, -187500.02, 187500.00
375, -187500.02, -187500.02, -187500.02, -187500.02, 34553.63, 187500.00, -187500.02, 187500.00
376, -187500.02, -187500.02, -187500.02, -187500.02, 34435.68, 187500.00, -187500.02, 187500.00
377, -187500.02, -187500.02, -187500.02, -187500.02, 34326.78, 187500.00, -187500.02, 187500.00
378, -187500.02, -187500.02, -187500.02, -187500.02, 34235.81, 187500.00, -187500.02, 187500.00
379, -187500.02, -187500.02, -187500.02, -187500.02, 34155.52, 187500.00, -187500.02, 187500.00
380, -187500.02, -187500.02, -187500.02, -187500.02, 34070.85, 187500.00, -187500.02, 187500.00
381, -187500.02, -187500.02, -187500.02, -187500.02, 33988.64, 187500.00, -187500.02, 187500.00
382, -187500.02, -187500.02, -187500.02, -187500.02, 33921.14, 187500.00, -187500.02, 187500.00
383, -187500.02, -187500.02, -187500.02, -187500.02, 33849.50, 187500.00, -187500.02, 187500.00
384, -187500.02, -187500.02, -187500.02, -187500.02, 33766.40, 187500.00, -187500.02, 187500.00
385, -187500.02, -187500.02, -187500.02, -187500.02, 33684.66, 187500.00, -187500.02, 187500.00
386, -187500.02, -187500.02, -187500.02, -187500.02, 33619.53, 187500.00, -187500.02, 187500.00
387, -187500.02, -187500.02, -187500.02, -187500.02, 33550.26, 187500.00, -187500.02, 187500.00
388, -187500.02, -187500.02, -187500.02, -187500.02, 33470.04, 187500.00, -187500.02, 187500.00
389, -187500.02, -187500.02, -187500.02, -187500.02, 33384.88, 187500.00, -187500.02, 187500.00
390, -187500.02, -187500.02, -187500.02, -187500.02, 33315.03, 187500.00, -187500.02, 187500.00
391, -187500.02, -187500.02, -187500.02, -187500.02, 33247.66, 187500.00, -187500.02, 187500.00
392, -187500.02, -187500.02, -187500.02, -187500.02, 33171.64, 187500.00, -187500.02, 187500.00
393, -187500.02, -187500.02, -187500.02, -187500.02, 33088.79, 187500.00, -187500.02, 187500.00
394, -187500.02, -187500.02, -187500.02, -187500.02, 33018.15, 187500.00, -187500.02, 187500.00
395, -187500.02, -187500.02, -187500.02, -187500.02, 32954.94, 187500.00, -187500.02, 187500.00
396, -187500.02, -187500.02, -187500.02, -187500.02, 32875.41, 187500.00, -187500.02, 187500.00
397, -187500.02, -187500.02, -187500.02, -187500.02, 32768.98, 187500.00, -187500.02, 187500.00
398, -187500.02, -187500.02, -187500.02, -187500.02, 32666.04, 187500.00, -187500.02, 187500.00
399, -187500.02, -187500.02, -187500.02, -187500.02, 32570.83, 187500.00, -187500.02, 187500.00
400, -187500.02, -187500.02, -187500.02, -187500.02, 32467.94, 187500.00, -187500.02, 187500.00
401, -187500.02, -187500.02, -187500.02, -187500.02, 32355.42, 187500.00, -187500.02, 187500.00
402, -187500.02, -187500.02, -187500.02, -187500.02, 32249.95, 187500.00, -187500.02, 187500.00
403, -187500.02, -187500.02, -187500.02, -187500.02, 32168.43, 187500.00, -187500.02, 187500.00
404, -187500.02, -187500.02, -187500.02, -187500.02, 32096.28, 187500.00, -187500.02, 187500.00
405, -187500.02, -187500.02, -187500.02, -187500.02, 32014.80, 187500.00, -187500.02, 187500.00
406, -187500.02, -187500.02, -187500.02, -187500.02, 31937.20, 187500.00, -187500.02, 187500.00
407, -187500.02, -187500.02, -187500.02, -187500.02, 31874.01, 187500.00, -187500.02, 187500.00
408, -187500.02, -187500.02, -187500.02, -187500.02, 31807.13, 187500.00, -187500.02, 187500.00
409, -187500.02, -187500.02, -187500.02, -187500.02, 31732.70, 187500.00, -187500.02, 187500.00
410, -187500.02, -187500.02, -187500.02, -187500.02, 31656.28, 187500.00, -187500.02, 187500.00
411, -187500.02, -187500.02, -187500.02, -187500.02, 31592.02, 187500.00, -187500.02, 187500.00
412, -187500.02, -187500.02, -187500.02, -187500.02, 31523.87, 187500.00, -187500.02, 187500.00
413, -187500.02, -187500.02, -187500.02, -187500.02, 31444.97, 187500.00, -187500.02, 187500.00
414, -187500.02, -187500.02, -187500.02, -187500.02, 31363.41, 187500.00, -187500.02, 187500.00
415, -187500.02, -187500.02, -187500.02, -187500.02, 31297.83, 187500.00, -187500.02, 187500.00
416, -187500.02, -187500.02, -187500.02, -187500.02, 31233.52, 187500.00, -187500.02, 187500.00
417, -187500.02, -187500.02, -187500.02, -187500.02, 31161.26, 187500.00, -187500.02, 187500.00
418, -187500.02, -187500.02, -187500.02, -187500.02, 31083.25, 187500.00, -187500.02, 187500.00
419, -187500.02, -187500.02, -187500.02, -187500.02, 31016.49, 187500.00, -187500.02, 187500.00
420, -187500.02, -187500.02, -187500.02, -187500.02, 30954.55, 187500.00, -187500.02, 187500.00
421, -187500.02, -187500.02, -187500.02, -187500.02, 30873.21, 187500.00, -187500.02, 187500.00
422, -187500.02, -187500.02, -187500.02, -187500.02, 30767.42, 187500.00, -187500.02, 187500.00
423, -187500.02, -187500.02, -187500.02, -187500.02, 30667.91, 187500.00, -187500.02, 187500.00
424, -187500.02, -187500.02, -187500.02, -187500.02, 30578.86, 187500.00, -187500.02, 187500.00
425, -187500.02, -187500.02, -187500.02, -187500.02, 30483.22, 187500.00, -187500.02, 187500.00
426, -187500.02, -187500.02, -187500.02, -187500.02, 30373.38, 187500.00, -187500.02, 187500.00
427, -187500.02, -187500.02, -187500.02, -187500.02, 30274.50, 187500.00, -187500.02, 187500.00
428, -187500.02, -187500.02, -187500.02, -187500.02, 30207.96, 187500.00, -187500.02, 187500.00
429, -187500.02, -187500.02, -187500.02, -187500.02, 30143.18, 187500.00, -187500.02, 187500.00
430, -187500.02, -187500.02, -187500.02, -187500.02, 30067.88, 187500.00, -187500.02, 187500.00
431, -187500.02, -187500.02, -187500.02, -187500.02, 29991.32, 187500.00, -187500.02, 187500.00
432, -187500.02, -187500.02, -187500.02, -187500.02, 29929.66, 187500.00, -187500.02, 187500.00
433, -187500.02, -187500.02, -187500.02, -187500.02, 29868.14, 187500.00, -187500.02, 187500.00
434, -187500.02, -187500.02, -187500.02, -187500.02, 29796.69, 187500.00, -187500.02, 187500.00
435, -187500.02, -187500.02, -187500.02, -187500.02, 29723.17, 187500.00, -187500.02, 187500.00
436, -187500.02, -187500.02, -187500.02, -187500.02, 29664.70, 187500.00, -187500.02, 187500.00
437, -187500.02, -187500.02, -187500.02, -187500.02, 29602.09, 187500.00, -187500.02, 187500.00
438, -187500.02, -187500.02, -187500.02, -187500.02, 29528.51, 187500.00, -187500.02, 187500.00
439, -187500.02, -187500.02, -187500.02, -187500.02, 29451.24, 187500.00, -187500.02, 187500.00
440, -187500.02, -187500.02, -187500.02, -187500.02, 29389.50, 187500.00, -187500.02, 187500.00
441, -187500.02, -187500.02, -187500.02, -187500.02, 29332.55, 187500.00, -187500.02, 187500.00
442, -187500.02, -187500.02, -187500.02, -187500.02, 29264.89, 187500.00, -187500.02, 187500.00
443, -187500.02, -187500.02, -187500.02, -187500.02, 29190.44, 187500.00, -187500.02, 187500.00
444, -187500.02, -187500.02, -187500.02, -187500.02, 29124.75, 187500.00, -187500.02, 187500.00
445, -187500.02, -187500.02, -187500.02, -187500.02, 29049.91, 187500.00, -187500.02, 187500.00
446, -187500.02, -187500.02, -187500.02, -187500.02, 28956.88, 187500.00, -187500.02, 187500.00
447, -187500.02, -187500.02, -187500.02, -187500.02, 28853.33, 187500.00, -187500.02, 187500.00
448, -187500.02, -187500.02, -187500.02, -187500.02, 28758.20, 187500.00, -187500.02, 187500.00
449, -187500.02, -187500.02, -187500.02, -187500.02, 28673.73, 187500.00, -187500.02, 187500.00
450, -187500.02, -187500.02, -187500.02, -187500.02, 28581.71, 187500.00, -187500.02, 187500.00
451, -187500.02, -187500.02, -187500.02, -187500.02, 28488.93, 187500.00, -187500.02, 187500.00
452, -187500.02, -187500.02, -187500.02, -187500.02, 28417.31, 187500.00, -187500.02, 187500.00
453, -187500.02, -187500.02, -187500.02, -187500.02, 28362.28, 187500.00, -187500.02, 187500.00
454, -187500.02, -187500.02, -187500.02, -187500.02, 28302.22, 187500.00, -187500.02, 187500.00
455, -187500.02, -187500.02, -187500.02, -187500.02, 28231.77, 187500.00, -187500.02, 187500.00
456, -187500.02, -187500.02, -187500.02, -187500.02, 28164.67, 187500.00, -187500.02, 187500.00
457, -187500.02, -187500.02, -187500.02, -187500.02, 28113.76, 187500.00, -187500.02, 187500.00
458, -187500.02, -187500.02, -187500.02, -187500.02, 28056.91, 187500.00, -187500.02, 187500.00
459, -187500.02, -187500.02, -187500.02, -187500.02, 27989.14, 187500.00, -187500.02, 187500.00
460, -187500.02, -187500.02, -187500.02, -187500.02, 27919.72, 187500.00, -187500.02, 187500.00
461, -187500.02, -187500.02, -187500.02, -187500.02, 27864.89, 187500.00, -187500.02, 187500.00
462, -187500.02, -187500.02, -187500.02, -187500.02, 27810.96, 187500.00, -187500.02, 187500.00
463, -187500.02, -187500.02, -187500.02, -187500.02, 27747.57, 187500.00, -187500.02, 187500.00
464, -187500.02, -187500.02, -187500.02, -187500.02, 27676.71, 187500.00, -187500.02, 187500.00
465, -187500.02, -187500.02, -187500.02, -187500.02, 27622.42, 187500.00, -187500.02, 187500.00
466, -187500.02, -187500.02, -187500.02, -187500.02, 27571.01, 187500.00, -187500.02, 187500.00
467, -187500.02, -187500.02, -187500.02, -187500.02, 27510.57, 187500.00, -187500.02, 187500.00
468, -187500.02, -187500.02, -187500.02, -187500.02, 27439.63, 187500.00, -187500.02, 187500.00
469, -187500.02, -187500.02, -187500.02, -187500.02, 27375.66, 187500.00, -187500.02, 187500.00
470, -187500.02, -187500.02, -187500.02, -187500.02, 27303.55, 187500.00, -187500.02, 187500.00
471, -187500.02, -187500.02, -187500.02, -187500.02, 27214.28, 187500.00, -187500.02, 187500.00
472, -187500.02, -187500.02, -187500.02, -187500.02, 27116.26, 187500.00, -187500.02, 187500.00
473, -187500.02, -187500.02, -187500.02, -187500.02, 27025.54, 187500.00, -187500.02, 187500.00
474, -187500.02, -187500.02, -187500.02, -187500.02, 26944.92, 187500.00, -187500.02, 187500.00
475, -187500.02, -187500.02, -187500.02, -187500.02, 26859.73, 187500.00, -187500.02, 187500.00
476, -187500.02, -187500.02, -187500.02, -187500.02, 26781.68, 187500.00, -187500.02, 187500.00
477, -187500.02, -187500.02, -187500.02, -187500.02, 26718.45, 187500.00, -187500.02, 187500.00
478, -187500.02, -187500.02, -187500.02, -187500.02, 26671.13, 187500.00, -187500.02, 187500.00
479, -187500.02, -187500.02, -187500.02, -187500.02, 26618.20, 187500.00, -187500.02, 187500.00
480, -187500.02, -187500.02, -187500.02, -187500.02, 26553.83, 187500.00, -187500.02, 187500.00
481, -187500.02, -187500.02, -187500.02, -187500.02, 26489.92, 187500.00, -187500.02, 187500.00
482, -187500.02, -187500.02, -187500.02, -187500.02, 26441.02, 187500.00, -187500.02, 187500.00
483, -187500.02, -187500.02, -187500.02, -187500.02, 26387.80, 187500.00, -187500.02, 187500.00
484, -187500.02, -187500.02, -187500.02, -187500.02, 26325.35, 187500.00, -187500.02, 187500.00
485, -187500.02, -187500.02, -187500.02, -187500.02, 26258.58, 187500.00, -187500.02, 187500.00
486, -187500.02, -187500.02, -187500.02, -187500.02, 26207.51, 187500.00, -187500.02, 187500.00
487, -187500.02, -187500.02, -187500.02, -187500.02, 26158.54, 187500.00, -187500.02, 187500.00
488, -187500.02, -187500.02, -187500.02, -187500.02, 26098.75, 187500.00, -187500.02, 187500.00
489, -187500.02, -187500.02, -187500.02, -187500.02, 26032.88, 187500.00, -187500.02, 187500.00
490, -187500.02, -187500.02, -187500.02, -187500.02, 25980.79, 187500.00, -187500.02, 187500.00
491, -187500.02, -187500.02, -187500.02, -187500.02, 25934.42, 187500.00, -187500.02, 187500.00
492, -187500.02, -187500.02, -187500.02, -187500.02, 25875.36, 187500.00, -187500.02, 187500.00
493, -187500.02, -187500.02, -187500.02, -187500.02, 25796.10, 187500.00, -187500.02, 187500.00
494, -187500.02, -187500.02, -187500.02, -187500.02, 25712.39, 187500.00, -187500.02, 187500.00
495, -187500.02, -187500.02, -187500.02, -187500.02, 25635.01, 187500.00, -187500.02, 187500.00
496, -187500.02, -187500.02, -187500.02, -187500.02, 25548.18, 187500.00, -187500.02, 187500.00
497, -187500.02, -187500.02, -187500.02, -187500.02, 25453.81, 187500.00, -187500.02, 187500.00
498, -187500.02, -187500.02, -187500.02, -187500.02, 25367.71, 187500.00, -187500.02, 187500.00
499, -187500.02, -187500.02, -187500.02, -187500.02, 25308.34, 187500.00, -187500.02, 187500.00
500, -187500.02, -187500.02, -187500.02, -187500.02, 25257.02, 187500.00, -187500.02, 187500.00
501, -187500.02, -187500.02, -187500.02, -187500.02, 25195.44, 187500.00, -187500.02, 187500.00
502, -187500.02, -187500.02, -187500.02, -187500.02, 25136.75, 187500.00, -187500.02, 187500.00
503, -187500.02, -187500.02, -187500.02, -187500.02, 25093.21, 187500.00, -187500.02, 187500.00
504, -187500.02, -187500.02, -187500.02, -187500.02, 25042.87, 187500.00, -187500.02, 187500.00
505, -187500.02, -187500.02, -187500.02, -187500.02, 24981.92, 187500.00, -187500.02, 187500.00
506, -187500.02, -187500.02, -187500.02, -187500.02, 24921.26, 187500.00, -187500.02, 187500.00
507, -187500.02, -187500.02, -187500.02, -187500.02, 24874.61, 187500.00, -187500.02, 187500.00
508, -187500.02, -187500.02, -187500.02, -187500.02, 24823.38, 187500.00, -187500.02, 187500.00
509, -187500.02, -187500.02, -187500.02, -187500.02, 24762.56, 187500.00, -187500.02, 187500.00
510, -187500.02, -187500.02, -187500.02, -187500.02, 24700.33, 187500.00, -187500.02, 187500.00
511, -187500.02, -187500.02, -187500.02, -187500.02, 24654.40, 187500.00, -187500.02, 187500.00
512, -187500.02, -187500.02, -187500.02, -187500.02, 24610.41, 187500.00, -187500.02, 187500.00
513, -187500.02, -187500.02, -187500.02, -187500.02, 24555.36, 187500.00, -187500.02, 187500.00
514, -187500.02, -187500.02, -187500.02, -187500.02, 24491.54, 187500.00, -187500.02, 187500.00
515, -187500.02, -187500.02, -187500.02, -187500.02, 24440.92, 187500.00, -187500.02, 187500.00
516, -187500.02, -187500.02, -187500.02, -187500.02, 24395.23, 187500.00, -187500.02, 187500.00
517, -187500.02, -187500.02, -187500.02, -187500.02, 24324.60, 187500.00, -187500.02, 187500.00
518, -187500.02, -187500.02, -187500.02, -187500.02, 24234.12, 187500.00, -187500.02, 187500.00
519, -187500.02, -187500.02, -187500.02, -187500.02, 24153.54, 187500.00, -187500.02, 187500.00
520, -187500.02, -187500.02, -187500.02, -187500.02, 24080.45, 187500.00, -187500.02, 187500.00
521, -187500.02, -187500.02, -187500.02, -187500.02, 23998.84, 187500.00, -187500.02, 187500.00
522, -187500.02, -187500.02, -187500.02, -187500.02, 23907.00, 187500.00, -187500.02, 187500.00
523, -187500.02, -187500.02, -187500.02, -187500.02, 23831.79, 187500.00, -187500.02, 187500.00
524, -187500.02, -187500.02, -187500.02, -187500.02, 23787.20, 187500.00, -187500.02, 187500.00
525, -187500.02, -187500.02, -187500.02, -187500.02, 23738.00, 187500.00, -187500.02, 187500.00
526, -187500.02, -187500.02, -187500.02, -187500.02, 23680.80, 187500.00, -187500.02, 187500.00
527, -187500.02, -187500.02, -187500.02, -187500.02, 23623.80, 187500.00, -187500.02, 187500.00
528, -187500.02, -187500.02, -187500.02, -187500.02, 23582.63, 187500.00, -187500.02, 187500.00
529, -187500.02, -187500.02, -187500.02, -187500.02, 23538.53, 187500.00, -187500.02, 187500.00
530, -187500.02, -187500.02, -187500.02, -187500.02, 23480.95, 187500.00, -187500.02, 187500.00
531, -187500.02, -187500.02, -187500.02, -187500.02, 23421.25, 187500.00, -187500.02, 187500.00
532, -187500.02, -187500.02, -187500.02, -187500.02, 23377.26, 187500.00, -187500.02, 187500.00
533, -187500.02, -187500.02, -187500.02, -187500.02, 23330.06, 187500.00, -187500.02, 187500.00
534, -187500.02, -187500.02, -187500.02, -187500.02, 23274.56, 187500.00, -187500.02, 187500.00
535, -187500.02, -187500.02, -187500.02, -187500.02, 23215.71, 187500.00, -187500.02, 187500.00
536, -187500.02, -187500.02, -187500.02, -187500.02, 23170.87, 187500.00, -187500.02, 187500.00
537, -187500.02, -187500.02, -187500.02, -187500.02, 23129.99, 187500.00, -187500.02, 187500.00
538, -187500.02, -187500.02, -187500.02, -187500.02, 23079.40, 187500.00, -187500.02, 187500.00
539, -187500.02, -187500.02, -187500.02, -187500.02, 23020.80, 187500.00, -187500.02, 187500.00
540, -187500.02, -187500.02, -187500.02, -187500.02, 22970.87, 187500.00, -187500.02, 187500.00
541, -187500.02, -187500.02, -187500.02, -187500.02, 22917.06, 187500.00, -187500.02, 187500.00
542, -187500.02, -187500.02, -187500.02, -187500.02, 22839.15, 187500.00, -187500.02, 187500.00
543, -187500.02, -187500.02, -187500.02, -187500.02, 22749.52, 187500.00, -187500.02, 187500.00
544, -187500.02, -187500.02, -187500.02, -187500.02, 22670.61, 187500.00, -187500.02, 187500.00
545, -187500.02, -187500.02, -187500.02, -187500.02, 22603.02, 187500.00, -187500.02, 187500.00
546, -187500.02, -187500.02, -187500.02, -187500.02, 22525.15, 187500.00, -187500.02, 187500.00
547, -187500.02, -187500.02, -187500.02, -187500.02, 22446.16, 187500.00, -187500.02, 187500.00
548, -187500.02, -187500.02, -187500.02, -187500.02, 22389.59, 187500.00, -187500.02, 187500.00
549, -187500.02, -187500.02, -187500.02, -187500.02, 22349.82, 187500.00, -187500.02, 187500.00
550, -187500.02, -187500.02, -187500.02, -187500.02, 22302.86, 187500.00, -187500.02, 187500.00
551, -187500.02, -187500.02, -187500.02, -187500.02, 22248.84, 187500.00, -187500.02, 187500.00
552, -187500.02, -187500.02, -187500.02, -187500.02, 22195.48, 187500.00, -187500.02, 187500.00
553, -187500.02, -187500.02, -187500.02, -187500.02, 22157.93, 187500.00, -187500.02, 187500.00
554, -187500.02, -187500.02, -187500.02, -187500.02, 22116.47, 187500.00, -187500.02, 187500.00
555, -187500.02, -187500.02, -187500.02, -187500.02, 22063.94, 187500.00, -187500.02, 187500.00
556, -187500.02, -187500.02, -187500.02, -187500.02, 22010.23, 187500.00, -187500.02, 187500.00
557, -187500.02, -187500.02, -187500.02, -187500.02, 21972.05, 187500.00, -187500.02, 187500.00
558, -187500.02, -187500.02, -187500.02, -187500.02, 21934.77, 187500.00, -187500.02, 187500.00
559, -187500.02, -187500.02, -187500.02, -187500.02, 21886.67, 187500.00, -187500.02, 187500.00
560, -187500.02, -187500.02, -187500.02, -187500.02, 21831.02, 187500.00, -187500.02, 187500.00
561, -187500.02, -187500.02, -187500.02, -187500.02, 21791.54, 187500.00, -187500.02, 187500.00
562, -187500.02, -187500.02, -187500.02, -187500.02, 21756.32, 187500.00, -187500.02, 187500.00
563, -187500.02, -187500.02, -187500.02, -187500.02, 21712.86, 187500.00, -187500.02, 187500.00
564, -187500.02, -187500.02, -187500.02, -187500.02, 21656.67, 187500.00, -187500.02, 187500.00
565, -187500.02, -187500.02, -187500.02, -187500.02, 21610.18, 187500.00, -187500.02, 187500.00
566, -187500.02, -187500.02, -187500.02, -187500.02, 21561.39, 187500.00, -187500.02, 187500.00
567, -187500.02, -187500.02, -187500.02, -187500.02, 21487.25, 187500.00, -187500.02, 187500.00
568, -187500.02, -187500.02, -187500.02, -187500.02, 21402.11, 187500.00, -187500.02, 187500.00
569, -187500.02, -187500.02, -187500.02, -187500.02, 21325.66, 187500.00, -187500.02, 187500.00
570, -187500.02, -187500.02, -187500.02, -187500.02, 21260.62, 187500.00, -187500.02, 187500.00
571, -187500.02, -187500.02, -187500.02, -187500.02, 21188.40, 187500.00, -187500.02, 187500.00
572, -187500.02, -187500.02, -187500.02, -187500.02, 21111.76, 187500.00, -187500.02, 187500.00
573, -187500.02, -187500.02, -187500.02, -187500.02, 21056.48, 187500.00, -187500.02, 187500.00
574, -187500.02, -187500.02, -187500.02, -187500.02, 21023.11, 187500.00, -187500.02, 187500.00
575, -187500.02, -187500.02, -187500.02, -187500.02, 20984.13, 187500.00, -187500.02, 187500.00
576, -187500.02, -187500.02, -187500.02, -187500.02, 20933.10, 187500.00, -187500.02, 187500.00
577, -187500.02, -187500.02, -187500.02, -187500.02, 20882.29, 187500.00, -187500.02, 187500.00
578, -187500.02, -187500.02, -187500.02, -187500.02, 20847.34, 187500.00, -187500.02, 187500.00
579, -187500.02, -187500.02, -187500.02, -187500.02, 20808.54, 187500.00, -187500.02, 187500.00
580, -187500.02, -187500.02, -187500.02, -187500.02, 20759.21, 187500.00, -187500.02, 187500.00
581, -187500.02, -187500.02, -187500.02, -187500.02, 20706.59, 187500.00, -187500.02, 187500.00
582, -187500.02, -187500.02, -187500.02, -187500.02, 20669.78, 187500.00, -187500.02, 187500.00
583, -187500.02, -187500.02, -187500.02, -187500.02, 20634.46, 187500.00, -187500.02, 187500.00
584, -187500.02, -187500.02, -187500.02, -187500.02, 20588.97, 187500.00, -187500.02, 187500.00
585, -187500.02, -187500.02, -187500.02, -187500.02, 20537.14, 187500.00, -187500.02, 187500.00
586, -187500.02, -187500.02, -187500.02, -187500.02, 20499.32, 187500.00, -187500.02, 187500.00
587, -187500.02, -187500.02, -187500.02, -187500.02, 20466.51, 187500.00, -187500.02, 187500.00
588, -187500.02, -187500.02, -187500.02, -187500.02, 20425.74, 187500.00, -187500.02, 187500.00
589, -187500.02, -187500.02, -187500.02, -187500.02, 20374.69, 187500.00, -187500.02, 187500.00
590, -187500.02, -187500.02, -187500.02, -187500.02, 20331.01, 187500.00, -187500.02, 187500.00
591, -187500.02, -187500.02, -187500.02, -187500.02, 20284.72, 187500.00, -187500.02, 187500.00
592, -187500.02, -187500.02, -187500.02, -187500.02, 20215.32, 187500.00, -187500.02, 187500.00
593, -187500.02, -187500.02, -187500.02, -187500.02, 20135.99, 187500.00, -187500.02, 187500.00
594, -187500.02, -187500.02, -187500.02, -187500.02, 20061.79, 187500.00, -187500.02, 187500.00
595, -187500.02, -187500.02, -187500.02, -187500.02, 20000.74, 187500.00, -187500.02, 187500.00
596, -187500.02, -187500.02, -187500.02, -187500.02, 19935.14, 187500.00, -187500.02, 187500.00
597, -187500.02, -187500.02, -187500.02, -187500.02, 19872.76, 187500.00, -187500.02, 187500.00
598, -187500.02, -187500.02, -187500.02, -187500.02, 19825.68, 187500.00, -187500.02, 187500.00
599, -187500.02, -187500.02, -187500.02, -187500.02, 19797.56, 187500.00, -187500.02, 187500.00
600, -187500.02, -187500.02, -187500.02, -187500.02, 19765.07, 187500.00, -187500.02, 187500.00
601, -187500.02, -187500.02, -187500.02, -187500.02, 19721.14, 187500.00, -187500.02, 187500.00
602, -187500.02, -187500.02, -187500.02, -187500.02, 19672.78, 187500.00, -187500.02, 187500.00
603, -187500.02, -187500.02, -187500.02, -187500.02, 19641.15, 187500.00, -187500.02, 187500.00
604, -187500.02, -187500.02, -187500.02, -187500.02, 19608.42, 187500.00, -187500.02, 187500.00
605, -187500.02, -187500.02, -187500.02, -187500.02, 19564.77, 187500.00, -187500.02, 187500.00
606, -187500.02, -187500.02, -187500.02, -187500.02, 19515.96, 187500.00, -187500.02, 187500.00
607, -187500.02, -187500.02, -187500.02, -187500.02, 19481.40, 187500.00, -187500.02, 187500.00
608, -187500.02, -187500.02, -187500.02, -187500.02, 19448.10, 187500.00, -187500.02, 187500.00
609, -187500.02, -187500.02, -187500.02, -187500.02, 19407.88, 187500.00, -187500.02, 187500.00
610, -187500.02, -187500.02, -187500.02, -187500.02, 19360.50, 187500.00, -187500.02, 187500.00
611, -187500.02, -187500.02, -187500.02, -187500.02, 19324.47, 187500.00, -187500.02, 187500.00
612, -187500.02, -187500.02, -187500.02, -187500.02, 19292.55, 187500.00, -187500.02, 187500.00
613, -187500.02, -187500.02, -187500.02, -187500.02, 19251.29, 187500.00, -187500.02, 187500.00
614, -187500.02, -187500.02, -187500.02, -187500.02, 19201.58, 187500.00, -187500.02, 187500.00
615, -187500.02, -187500.02, -187500.02, -187500.02, 19143.96, 187500.00, -187500.02, 187500.00
616, -187500.02, -187500.02, -187500.02, -187500.02, 19084.23, 187500.00, -187500.02, 187500.00
617, -187500.02, -187500.02, -187500.02, -187500.02, 19018.43, 187500.00, -187500.02, 187500.00
618, -187500.02, -187500.02, -187500.02, -187500.02, 18942.30, 187500.00, -187500.02, 187500.00
619, -187500.02, -187500.02, -187500.02, -187500.02, 18871.15, 187500.00, -187500.02, 187500.00
620, -187500.02, -187500.02, -187500.02, -187500.02, 18815.43, 187500.00, -187500.02, 187500.00
621, -187500.02, -187500.02, -187500.02, -187500.02, 18767.26, 187500.00, -187500.02, 187500.00
622, -187500.02, -187500.02, -187500.02, -187500.02, 18721.51, 187500.00, -187500.02, 187500.00
623, -187500.02, -187500.02, -187500.02, -187500.02, 18677.12, 187500.00, -187500.02, 187500.00
624, -187500.02, -187500.02, -187500.02, -187500.02, 18649.76, 187500.00, -187500.02, 187500.00
625, -187500.02, -187500.02, -187500.02, -187500.02, 18622.36, 187500.00, -187500.02, 187500.00
626, -187500.02, -187500.02, -187500.02, -187500.02, 18581.07, 187500.00, -187500.02, 187500.00
627, -187500.02, -187500.02, -187500.02, -187500.02, 18536.44, 187500.00, -187500.02, 187500.00
628, -187500.02, -187500.02, -187500.02, -187500.02, 18506.55, 187500.00, -187500.02, 187500.00
629, -187500.02, -187500.02, -187500.02, -187500.02, 18475.19, 187500.00, -187500.02, 187500.00
630, -187500.02, -187500.02, -187500.02, -187500.02, 18435.67, 187500.00, -187500.02, 187500.00
631, -187500.02, -187500.02, -187500.02, -187500.02, 18391.30, 187500.00, -187500.02, 187500.00
632, -187500.02, -187500.02, -187500.02, -187500.02, 18360.53, 187500.00, -187500.02, 187500.00
633, -187500.02, -187500.02, -187500.02, -187500.02, 18334.08, 187500.00, -187500.02, 187500.00
634, -187500.02, -187500.02, -187500.02, -187500.02, 18298.66, 187500.00, -187500.02, 187500.00
635, -187500.02, -187500.02, -187500.02, -187500.02, 18254.69, 187500.00, -187500.02, 187500.00
636, -187500.02, -187500.02, -187500.02, -187500.02, 18220.43, 187500.00, -187500.02, 187500.00
637, -187500.02, -187500.02, -187500.02, -187500.02, 18191.32, 187500.00, -187500.02, 187500.00
638, -187500.02, -187500.02, -187500.02, -187500.02, 18155.96, 187500.00, -187500.02, 187500.00
639, -187500.02, -187500.02, -187500.02, -187500.02, 18109.20, 187500.00, -187500.02, 187500.00
640, -187500.02, -187500.02, -187500.02, -187500.02, 18051.89, 187500.00, -187500.02, 187500.00
641, -187500.02, -187500.02, -187500.02, -187500.02, 17996.53, 187500.00, -187500.02, 187500.00
642, -187500.02, -187500.02, -187500.02, -187500.02, 17934.17, 187500.00, -187500.02, 187500.00
643, -187500.02, -187500.02, -187500.02, -187500.02, 17863.92, 187500.00, -187500.02, 187500.00
644, -187500.02, -187500.02, -187500.02, -187500.02, 17795.86, 187500.00, -187500.02, 187500.00
645, -187500.02, -187500.02, -187500.02, -187500.02, 17740.94, 187500.00, -187500.02, 187500.00
646, -187500.02, -187500.02, -187500.02, -187500.02, 17698.07, 187500.00, -187500.02, 187500.00
647, -187500.02, -187500.02, -187500.02, -187500.02, 17658.73, 187500.00, -187500.02, 187500.00
648, -187500.02, -187500.02, -187500.02, -187500.02, 17619.30, 187500.00, -187500.02, 187500.00
649, -187500.02, -187500.02, -187500.02, -187500.02, 17594.98, 187500.00, -187500.02, 187500.00
650, -187500.02, -187500.02, -187500.02, -187500.02, 17566.53, 187500.00, -187500.02, 187500.00
651, -187500.02, -187500.02, -187500.02, -187500.02, 17528.64, 187500.00, -187500.02, 187500.00
652, -187500.02, -187500.02, -187500.02, -187500.02, 17488.70, 187500.00, -187500.02, 187500.00
653, -187500.02, -187500.02, -187500.02, -187500.02, 17460.58, 187500.00, -187500.02, 187500.00
654, -187500.02, -187500.02, -187500.02, -187500.02, 17434.27, 187500.00, -187500.02, 187500.00
655, -187500.02, -187500.02, -187500.02, -187500.02, 17399.31, 187500.00, -187500.02, 187500.00
656, -187500.02, -187500.02, -187500.02, -187500.02, 17359.62, 187500.00, -187500.02, 187500.00
657, -187500.02, -187500.02, -187500.02, -187500.02, 17332.06, 187500.00, -187500.02, 187500.00
658, -187500.02, -187500.02, -187500.02, -187500.02, 17307.04, 187500.00, -187500.02, 187500.00
659, -187500.02, -187500.02, -187500.02, -187500.02, 17272.44, 187500.00, -187500.02, 187500.00
660, -187500.02, -187500.02, -187500.02, -187500.02, 17230.91, 187500.00, -187500.02, 187500.00
661, -187500.02, -187500.02, -187500.02, -187500.02, 17197.05, 187500.00, -187500.02, 187500.00
662, -187500.02, -187500.02, -187500.02, -187500.02, 17169.63, 187500.00, -187500.02, 187500.00
663, -187500.02, -187500.02, -187500.02, -187500.02, 17135.43, 187500.00, -187500.02, 187500.00
664, -187500.02, -187500.02, -187500.02, -187500.02, 17094.12, 187500.00, -187500.02, 187500.00
665, -187500.02, -187500.02, -187500.02, -187500.02, 17049.26, 187500.00, -187500.02, 187500.00
666, -187500.02, -187500.02, -187500.02, -187500.02, 16996.89, 187500.00, -187500.02, 187500.00
667, -187500.02, -187500.02, -187500.02, -187500.02, 16935.47, 187500.00, -187500.02, 187500.00
668, -187500.02, -187500.02, -187500.02, -187500.02, 16864.61, 187500.00, -187500.02, 187500.00
669, -187500.02, -187500.02, -187500.02, -187500.02, 16797.40, 187500.00, -187500.02, 187500.00
670, -187500.02, -187500.02, -187500.02, -187500.02, 16745.90, 187500.00, -187500.02, 187500.00
671, -187500.02, -187500.02, -187500.02, -187500.02, 16698.99, 187500.00, -187500.02, 187500.00
672, -187500.02, -187500.02, -187500.02, -187500.02, 16659.34, 187500.00, -187500.02, 187500.00
673, -187500.02, -187500.02, -187500.02, -187500.02, 16622.08, 187500.00, -187500.02, 187500.00
674, -187500.02, -187500.02, -187500.02, -187500.02, 16598.34, 187500.00, -187500.02, 187500.00
675, -187500.02, -187500.02, -187500.02, -187500.02, 16571.65, 187500.00, -187500.02, 187500.00
676, -187500.02, -187500.02, -187500.02, -187500.02, 16536.04, 187500.00, -187500.02, 187500.00
677, -187500.02, -187500.02, -187500.02, -187500.02, 16496.30, 187500.00, -187500.02, 187500.00
678, -187500.02, -187500.02, -187500.02, -187500.02, 16472.43, 187500.00, -187500.02, 187500.00
679, -187500.02, -187500.02, -187500.02, -187500.02, 16450.35, 187500.00, -187500.02, 187500.00
680, -187500.02, -187500.02, -187500.02, -187500.02, 16419.39, 187500.00, -187500.02, 187500.00
681, -187500.02, -187500.02, -187500.02, -187500.02, 16381.91, 187500.00, -187500.02, 187500.00
682, -187500.02, -187500.02, -187500.02, -187500.02, 16354.93, 187500.00, -187500.02, 187500.00
683, -187500.02, -187500.02, -187500.02, -187500.02, 16332.91, 187500.00, -187500.02, 187500.00
684, -187500.02, -187500.02, -187500.02, -187500.02, 16303.38, 187500.00, -187500.02, 187500.00
685, -187500.02, -187500.02, -187500.02, -187500.02, 16263.73, 187500.00, -187500.02, 187500.00
686, -187500.02, -187500.02, -187500.02, -187500.02, 16233.27, 187500.00, -187500.02, 187500.00
687, -187500.02, -187500.02, -187500.02, -187500.02, 16213.51, 187500.00, -187500.02, 187500.00
688, -187500.02, -187500.02, -187500.02, -187500.02, 16187.36, 187500.00, -187500.02, 187500.00
689, -187500.02, -187500.02, -187500.02, -187500.02, 16152.22, 187500.00, -187500.02, 187500.00
690, -187500.02, -187500.02, -187500.02, -187500.02, 16120.68, 187500.00, -187500.02, 187500.00
691, -187500.02, -187500.02, -187500.02, -187500.02, 16088.03, 187500.00, -187500.02, 187500.00
692, -187500.02, -187500.02, -187500.02, -187500.02, 16032.64, 187500.00, -187500.02, 187500.00
693, -187500.02, -187500.02, -187500.02, -187500.02, 15965.98, 187500.00, -187500.02, 187500.00
694, -187500.02, -187500.02, -187500.02, -187500.02, 15903.82, 187500.00, -187500.02, 187500.00
695, -187500.02, -187500.02, -187500.02, -187500.02, 15854.70, 187500.00, -187500.02, 187500.00
696, -187500.02, -187500.02, -187500.02, -187500.02, 15803.11, 187500.00, -187500.02, 187500.00
697, -187500.02, -187500.02, -187500.02, -187500.02, 15750.56, 187500.00, -187500.02, 187500.00
698, -187500.02, -187500.02, -187481.70, -187500.02, 15712.45, 187500.00, -187500.02, 187500.00
699, -187500.02, -187500.02, -187493.78, -187500.02, 15690.01, 187500.00, -187500.02, 187500.00
700, -187500.02, -187500.02, -187500.02, -187500.02, 15666.43, 187500.00, -187500.02, 187500.00
701, -187500.02, -187500.02, -187500.02, -187500.02, 15634.42, 187500.00, -187500.02, 187500.00
702, -187500.02, -187500.02, -187500.02, -187500.02, 15599.42, 187500.00, -187500.02, 187500.00
703, -187500.02, -187500.02, -187500.02, -187500.02, 15574.65, 187500.00, -187500.02, 187500.00
704, -187500.02, -187500.02, -187500.02, -187500.02, 15552.66, 187500.00, -187500.02, 187500.00
705, -187500.02, -187500.02, -187500.02, -187500.02, 15524.16, 187500.00, -187500.02, 187500.00
706, -187500.02, -187500.02, -187500.02, -187500.02, 15488.55, 187500.00, -187500.02, 187500.00
707, -187500.02, -187500.02, -187500.02, -187500.02, 15464.86, 187500.00, -187500.02, 187500.00
708, -187500.02, -187500.02, -187500.02, -187500.02, 15446.37, 187500.00, -187500.02, 187500.00
709, -187500.02, -187500.02, -187500.02, -187500.02, 15415.39, 187500.00, -187500.02, 187500.00
710, -187500.02, -187500.02, -187500.02, -187500.02, 15379.45, 187500.00, -187500.02, 187500.00
711, -187500.02, -187500.02, -187500.02, -187500.02, 15352.94, 187500.00, -187500.02, 187500.00
712, -187500.02, -187500.02, -187500.02, -187500.02, 15335.06, 187500.00, -187500.02, 187500.00
713, -187500.02, -187500.02, -187500.02, -187500.02, 15309.92, 187500.00, -187500.02, 187500.00
714, -187500.02, -187500.02, -187500.02, -187500.02, 15274.11, 187500.00, -187500.02, 187500.00
715, -187500.02, -187494.19, -187500.02, -187500.02, 15243.62, 187500.00, -187500.02, 187500.00
716, -187500.02, -187500.02, -187500.02, -187500.02, 15226.75, 187500.00, -187500.02, 187500.00
717, -187500.02, -187500.02, -187500.02, -187500.02, 15194.40, 187500.00, -187500.02, 187500.00
718, -187500.02, -187500.02, -187500.02, -187500.02, 15135.28, 187500.00, -187500.02, 187500.00
719, -187500.02, -187490.58, -187500.02, -187500.02, 15073.64, 187500.00, -187500.02, 187500.00
720, -187500.02, -187464.13, -187500.02, -187500.02, 15026.18, 187500.00, -187500.02, 187500.00
721, -187500.02, -187476.41, -187500.02, -187500.02, 14974.91, 187500.00, -187500.02, 187500.00
722, -187500.02, -187500.02, -187500.02, -187500.02, 14911.61, 187500.00, -187500.02, 187500.00
723, -187500.02, -187500.02, -187445.70, -187500.02, 14852.38, 187500.00, -187500.02, 187500.00
724, -187500.02, -187481.38, -187341.23, -187500.02, 14825.73, 187500.00, -187500.02, 187500.00
725, -187500.02, -187462.83, -187350.38, -187500.02, 14806.04, 187500.00, -187500.02, 187500.00
726, -187500.02, -187484.14, -187366.67, -187500.02, 14777.01, 187500.00, -187500.02, 187500.00
727, -187500.02, -187463.72, -187380.84, -187500.02, 14744.01, 187500.00, -187500.02, 187500.00
728, -187500.02, -187438.23, -187392.13, -187500.02, 14723.45, 187500.00, -187500.02, 187500.00
729, -187500.02, -187462.48, -187399.88, -187500.02, 14708.03, 187500.00, -187500.02, 187500.00
730, -187500.02, -187473.70, -187414.50, -187500.02, 14682.37, 187500.00, -187500.02, 187500.00
731, -187500.02, -187467.42, -187431.08, -187500.02, 14649.78, 187500.00, -187500.02, 187500.00
732, -187500.02, -187443.25, -187443.42, -187500.02, 14625.26, 187500.00, -187500.02, 187500.00
733, -187500.02, -187416.89, -187459.30, -187500.02, 14607.45, 187500.00, -187500.02, 187500.00
734, -187500.02, -187455.88, -187474.78, -187500.02, 14584.87, 187500.00, -187500.02, 187500.00
735, -187500.02, -187459.61, -187487.83, -187500.02, 14554.47, 187500.00, -187500.02, 187500.00
736, -187500.02, -187405.63, -187500.02, -187500.02, 14529.62, 187500.00, -187500.02, 187500.00
737, -187500.02, -187407.44, -187500.02, -187500.02, 14514.22, 187500.00, -187500.02, 187500.00
738, -187500.02, -187415.59, -187500.02, -187500.02, 14493.00, 187500.00, -187500.02, 187500.00
739, -187500.02, -187438.97, -187500.02, -187500.02, 14465.11, 187500.00, -187500.02, 187500.00
740, -187500.02, -187421.67, -187500.02, -187500.02, 14439.58, 187500.00, -187500.02, 187500.00
741, -187500.02, -187400.70, -187500.02, -187500.02, 14422.22, 187500.00, -187500.02, 187500.00
742, -187500.02, -187418.77, -187500.02, -187500.02, 14393.79, 187500.00, -187500.02, 187500.00
743, -187500.02, -187449.92, -187500.02, -187500.02, 14341.39, 187500.00, -187500.02, 187500.00
744, -187500.02, -187385.03, -187500.02, -187500.02, 14286.43, 187500.00, -187500.02, 187500.00
745, -187500.02, -187342.28, -187500.02, -187500.02, 14243.58, 187500.00, -187500.02, 187500.00
746, -187500.02, -187326.88, -187482.63, -187500.02, 14195.30, 187500.00, -187500.02, 187500.00
747, -187500.02, -187357.95, -187417.83, -187500.02, 14137.59, 187500.00, -187500.02, 187500.00
748, -187500.02, -187322.83, -187295.66, -187500.02, 14083.36, 187500.00, -187500.02, 187500.00
749, -187500.02, -187307.13, -187196.25, -187500.02, 14057.70, 187500.00, -187500.02, 187500.00
750, -187500.02, -187346.48, -187207.72, -187500.02, 14040.29, 187500.00, -187500.02, 187500.00
751, -187500.02, -187282.42, -187220.28, -187500.02, 14016.29, 187500.00, -187500.02, 187500.00
752, -187500.02, -187262.03, -187235.08, -187500.02, 13987.94, 187500.00, -187500.02, 187500.00
753, -187500.02, -187247.98, -187248.69, -187500.02, 13970.47, 187500.00, -187500.02, 187500.00
754, -187500.02, -187270.39, -187261.05, -187500.02, 13954.39, 187500.00, -187500.02, 187500.00
755, -187500.02, -187309.17, -187271.88, -187500.02, 13930.25, 187500.00, -187500.02, 187500.00
756, -187500.02, -187363.20, -187288.81, -187500.02, 13900.64, 187500.00, -187500.02, 187500.00
757, -187500.02, -187318.39, -187299.66, -187500.02, 13877.26, 187500.00, -187500.02, 187500.00
758, -187500.02, -187257.16, -187314.81, -187500.02, 13860.90, 187500.00, -187500.02, 187500.00
759, -187500.02, -187285.28, -187325.78, -187500.02, 13838.95, 187500.00, -187500.02, 187500.00
760, -187500.02, -187301.22, -187337.89, -187500.02, 13811.28, 187500.00, -187500.02, 187500.00
761, -187500.02, -187218.14, -187352.03, -187500.02, 13790.76, 187500.00, -187500.02, 187500.00
762, -187500.02, -187242.36, -187366.05, -187500.02, 13776.70, 187500.00, -187500.02, 187500.00
763, -187500.02, -187283.50, -187378.42, -187500.02, 13756.96, 187500.00, -187500.02, 187500.00
764, -187500.02, -187288.19, -187394.92, -187500.02, 13730.94, 187500.00, -187500.02, 187500.00
765, -187500.02, -187257.05, -187407.17, -187500.02, 13705.26, 187500.00, -187500.02, 187500.00
766, -187500.02, -187259.89, -187422.09, -187500.02, 13689.50, 187500.00, -187500.02, 187500.00
767, -187500.02, -187222.30, -187454.16, -187500.02, 13671.27, 187500.00, -187500.02, 187500.00
768, -187500.02, -187235.17, -187500.02, -187500.02, 13636.53, 187500.00, -187500.02, 187500.00
769, -187500.02, -187219.56, -187500.02, -187500.02, 13585.26, 187500.00, -187500.02, 187500.00
770, -187500.02, -187227.19, -187463.34, -187500.02, 13537.92, 187500.00, -187500.02, 187500.00
771, -187500.02, -187234.72, -187396.14, -187500.02, 13490.71, 187500.00, -187500.02, 187500.00
772, -187500.02, -187231.91, -187332.41, -187500.02, 13439.83, 187500.00, -187500.02, 187500.00
773, -187500.02, -187254.39, -187266.27, -187500.02, 13384.49, 187500.00, -187500.02, 187500.00
774, -187500.02, -187196.72, -187128.16, -187500.02, 13348.39, 187500.00, -187500.02, 187500.00
775, -187500.02, -187201.23, -187066.58, -187500.02, 13330.67, 187500.00, -187500.02, 187500.00
776, -187500.02, -187189.44, -187085.48, -187500.02, 13310.49, 187500.00, -187500.02, 187500.00
777, -187500.02, -187231.53, -187099.34, -187500.02, 13286.06, 187500.00, -187500.02, 187500.00
778, -187500.02, -187162.48, -187110.58, -187500.02, 13269.02, 187500.00, -187500.02, 187500.00
779, -187500.02, -187139.95, -187112.06, -187500.02, 13256.17, 187500.00, -187500.02, 187500.00
780, -187500.02, -187199.47, -187125.88, -187500.02, 13233.69, 187500.00, -187500.02, 187500.00
781, -187500.02, -187213.38, -187143.75, -187500.02, 13202.53, 187500.00, -187500.02, 187500.00
782, -187500.02, -187178.31, -187160.11, -187500.02, 13182.72, 187500.00, -187500.02, 187500.00
783, -187500.02, -187186.95, -187172.66, -187500.02, 13171.35, 187500.00, -187500.02, 187500.00
784, -187500.02, -187153.42, -187182.33, -187500.02, 13153.51, 187500.00, -187500.02, 187500.00
785, -187500.02, -187169.36, -187189.64, -187500.02, 13129.19, 187500.00, -187500.02, 187500.00
786, -187500.02, -187139.23, -187203.47, -187500.02, 13105.61, 187500.00, -187500.02, 187500.00
787, -187500.02, -187117.89, -187221.80, -187500.02, 13094.17, 187500.00, -187500.02, 187500.00
788, -187500.02, -187137.05, -187228.20, -187500.02, 13078.72, 187500.00, -187500.02, 187500.00
789, -187500.02, -187156.88, -187243.06, -187500.02, 13052.88, 187500.00, -187500.02, 187500.00
790, -187500.02, -187122.31, -187257.03, -187500.02, 13027.69, 187500.00, -187500.02, 187500.00
791, -187500.02, -187094.42, -187269.17, -187500.02, 13015.73, 187500.00, -187500.02, 187500.00
792, -187500.02, -187117.63, -187280.50, -187500.02, 13001.23, 187500.00, -187500.02, 187500.00
793, -187500.02, -187142.48, -187291.52, -187500.02, 12979.77, 187500.00, -187500.02, 187500.00
794, -187500.02, -187148.80, -187343.47, -187500.02, 12952.54, 187500.00, -187500.02, 187500.00
795, -187500.02, -187090.84, -187413.38, -187500.02, 12919.15, 187500.00, -187500.02, 187500.00
796, -187500.02, -187059.38, -187362.13, -187500.02, 12876.53, 187500.00, -187500.02, 187500.00
797, -187500.02, -187081.38, -187297.95, -187500.02, 12825.12, 187500.00, -187500.02, 187500.00
798, -187500.02, -187039.08, -187235.77, -187500.02, 12769.91, 187500.00, -187500.02, 187500.00
799, -187500.02, -187062.72, -187171.69, -187500.02, 12726.86, 187500.00, -187500.02, 187500.00
800, -187500.02, -187038.41, -187080.20, -187500.02, 12687.39, 187500.00, -187500.02, 187500.00
801, -187500.02, -187076.31, -186945.53, -187500.02, 12655.92, 187500.00, -187500.02, 187500.00
802, -187500.02, -187073.59, -186932.45, -187500.02, 12631.44, 187500.00, -187500.02, 187500.00
803, -187500.02, -187074.38, -186945.78, -187500.02, 12617.83, 187500.00, -187500.02, 187500.00
804, -187500.02, -187061.34, -186959.55, -187500.02, 12608.19, 187500.00, -187500.02, 187500.00
805, -187500.02, -187043.89, -186971.38, -187500.02, 12588.75, 187500.00, -187500.02, 187500.00
806, -187500.02, -187039.33, -186982.14, -187500.02, 12565.21, 187500.00, -187500.02, 187500.00
807, -187500.02, -187005.78, -186991.61, -187500.02, 12547.17, 187500.00, -187500.02, 187500.00
808, -187500.02, -186988.27, -187005.34, -187500.02, 12538.46, 187500.00, -187500.02, 187500.00
809, -187500.02, -187031.84, -187015.50, -187500.02, 12525.09, 187500.00, -187500.02, 187500.00
810, -187500.02, -187016.80, -187027.36, -187500.02, 12502.67, 187500.00, -187500.02, 187500.00
811, -187500.02, -186998.28, -187038.81, -187500.02, 12485.82, 187500.00, -187500.02, 187500.00
812, -187500.02, -186973.28, -187047.33, -187500.02, 12477.82, 187500.00, -187500.02, 187500.00
813, -187500.02, -186992.78, -187061.39, -187500.02, 12464.29, 187500.00, -187500.02, 187500.00
814, -187500.02, -187015.70, -187076.19, -187500.02, 12443.28, 187500.00, -187500.02, 187500.00
815, -187500.02, -187012.64, -187092.45, -187500.02, 12421.45, 187500.00, -187500.02, 187500.00
816, -187500.02, -186957.98, -187111.36, -187500.02, 12410.72, 187500.00, -187500.02, 187500.00
817, -187500.02, -186941.11, -187118.41, -187500.02, 12400.86, 187500.00, -187500.02, 187500.00
818, -187500.02, -186991.95, -187126.36, -187500.02, 12382.40, 187500.00, -187500.02, 187500.00
819, -187500.02, -186960.16, -187140.11, -187500.02, 12360.76, 187500.00, -187500.02, 187500.00
820, -187500.02, -186904.44, -187161.47, -187500.02, 12350.14, 187500.00, -187500.02, 187500.00
821, -187500.02, -186888.50, -187246.70, -187500.02, 12329.65, 187500.00, -187500.02, 187500.00
822, -187500.02, -186955.73, -187247.16, -187500.02, 12283.13, 187500.00, -187500.02, 187500.00
823, -187500.02, -186989.34, -187184.81, -187500.02, 12229.98, 187500.00, -187500.02, 187500.00
824, -187500.02, -186908.09, -187121.05, -187500.02, 12187.65, 187500.00, -187500.02, 187500.00
825, -187500.02, -186936.42, -187058.48, -187500.02, 12148.62, 187500.00, -187500.02, 187500.00
826, -187500.02, -186970.59, -186992.41, -187500.02, 12103.27, 187500.00, -187500.02, 187500.00
827, -187500.02, -186980.19, -186862.20, -187500.02, 12057.87, 187500.00, -187500.02, 187500.00
828, -187500.02, -186891.92, -186786.64, -187500.02, 12038.51, 187500.00, -187500.02, 187500.00
829, -187500.02, -186893.86, -186794.02, -187500.02, 12029.55, 187500.00, -187500.02, 187500.00
830, -187500.02, -186925.89, -186801.66, -187500.02, 12014.49, 187500.00, -187500.02, 187500.00
831, -187500.02, -186902.16, -186816.91, -187500.02, 11992.56, 187500.00, -187500.02, 187500.00
832, -187500.02, -186896.30, -186834.17, -187500.02, 11978.01, 187500.00, -187500.02, 187500.00
833, -187500.02, -186874.81, -186848.16, -187500.02, 11971.42, 187500.00, -187500.02, 187500.00
834, -187500.02, -186873.86, -186860.59, -187500.02, 11958.41, 187500.00, -187500.02, 187500.00
835, -187500.02, -186862.50, -186873.47, -187500.02, 11937.15, 187500.00, -187500.02, 187500.00
836, -187500.02, -186846.19, -186887.84, -187500.02, 11919.60, 187500.00, -187500.02, 187500.00
837, -187500.02, -186891.63, -186895.83, -187500.02, 11913.68, 187500.00, -187500.02, 187500.00
838, -187500.02, -186869.34, -186903.88, -187500.02, 11902.77, 187500.00, -187500.02, 187500.00
839, -187500.02, -186830.11, -186919.73, -187500.02, 11883.37, 187500.00, -187500.02, 187500.00
840, -187500.02, -186868.94, -186935.36, -187500.02, 11865.33, 187500.00, -187500.02, 187500.00
841, -187500.02, -186834.22, -186944.42, -187500.02, 11860.82, 187500.00, -187500.02, 187500.00
842, -187500.02, -186865.81, -186958.30, -187500.02, 11850.89, 187500.00, -187500.02, 187500.00
843, -187500.02, -186895.02, -186973.25, -187500.02, 11831.69, 187500.00, -187500.02, 187500.00
844, -187500.02, -186854.77, -186987.00, -187500.02, 11809.34, 187500.00, -187500.02, 187500.00
845, -187500.02, -186791.89, -187000.70, -187500.02, 11799.93, 187500.00, -187500.02, 187500.00
846, -187500.02, -186775.86, -187015.52, -187500.02, 11792.89, 187500.00, -187500.02, 187500.00
847, -187500.02, -186860.23, -187103.77, -187500.02, 11770.23, 187500.00, -187500.02, 187500.00
848, -187500.02, -186802.58, -187117.94, -187500.02, 11722.37, 187500.00, -187500.02, 187500.00
849, -187500.02, -186760.98, -187053.86, -187500.02, 11682.63, 187500.00, -187500.02, 187500.00
850, -187500.02, -186763.50, -186985.61, -187500.02, 11646.47, 187500.00, -187500.02, 187500.00
851, -187500.02, -186794.95, -186920.70, -187500.02, 11601.31, 187500.00, -187500.02, 187500.00
852, -187500.02, -186788.05, -186850.16, -187500.02, 11549.84, 187500.00, -187500.02, 187500.00
853, -187500.02, -186776.44, -186717.13, -187500.02, 11515.28, 187500.00, -187500.02, 187500.00
854, -187500.02, -186772.56, -186646.58, -187500.02, 11506.19, 187500.00, -187500.02, 187500.00
855, -187500.02, -186786.80, -186661.92, -187500.02, 11494.63, 187500.00, -187500.02, 187500.00
856, -187500.02, -186800.67, -186678.17, -187500.02, 11475.41, 187500.00, -187500.02, 187500.00
857, -187500.02, -186794.73, -186684.84, -187500.02, 11461.77, 187500.00, -187500.02, 187500.00
858, -187500.02, -186733.69, -186693.50, -187500.02, 11456.99, 187500.00, -187500.02, 187500.00
859, -187500.02, -186730.42, -186707.22, -187500.02, 11447.92, 187500.00, -187500.02, 187500.00
860, -187500.02, -186718.69, -186720.20, -187500.02, 11430.55, 187500.00, -187500.02, 187500.00
861, -187500.02, -186709.19, -186734.02, -187500.02, 11414.68, 187500.00, -187500.02, 187500.00
862, -187500.02, -186669.84, -186744.66, -187500.02, 11410.65, 187500.00, -187500.02, 187500.00
863, -187500.02, -186716.34, -186762.88, -187500.02, 11402.79, 187500.00, -187500.02, 187500.00
864, -187500.02, -186769.47, -186776.83, -187500.02, 11388.17, 187500.00, -187500.02, 187500.00
865, -187500.02, -186749.80, -186785.41, -187500.02, 11374.31, 187500.00, -187500.02, 187500.00
866, -187500.02, -186647.14, -186794.45, -187500.02, 11368.79, 187500.00, -187500.02, 187500.00
867, -187500.02, -186740.95, -186807.89, -187500.02, 11362.62, 187500.00, -187500.02, 187500.00
868, -187500.02, -186782.09, -186822.72, -187500.02, 11349.05, 187500.00, -187500.02, 187500.00
869, -187500.02, -186736.09, -186835.36, -187500.02, 11330.30, 187500.00, -187500.02, 187500.00
870, -187500.02, -186662.89, -186847.72, -187500.02, 11325.41, 187500.00, -187500.02, 187500.00
871, -187500.02, -186699.78, -186859.73, -187500.02, 11318.07, 187500.00, -187500.02, 187500.00
872, -187500.02, -186725.28, -186869.66, -187500.02, 11303.48, 187500.00, -187500.02, 187500.00
873, -187500.02, -186716.31, -186895.33, -187500.02, 11285.04, 187500.00, -187500.02, 187500.00
874, -187500.02, -186682.72, -186983.89, -187500.02, 11266.46, 187500.00, -187500.02, 187500.00
875, -187500.02, -186675.14, -186970.06, -187500.02, 11235.37, 187500.00, -187500.02, 187500.00
876, -187500.02, -186651.70, -186906.53, -187500.02, 11193.33, 187500.00, -187500.02, 187500.00
877, -187500.02, -186665.27, -186851.03, -187500.02, 11145.18, 187500.00, -187500.02, 187500.00
878, -187500.02, -186685.31, -186786.03, -187500.02, 11106.69, 187500.00, -187500.02, 187500.00
879, -187500.02, -186645.58, -186720.00, -187500.02, 11073.70, 187500.00, -187500.02, 187500.00
880, -187500.02, -186684.84, -186596.20, -187500.02, 11039.03, 187500.00, -187500.02, 187500.00
881, -187500.02, -186657.88, -186502.55, -187500.02, 11016.41, 187500.00, -187500.02, 187500.00
882, -187500.02, -186623.30, -186511.02, -187500.02, 11003.76, 187500.00, -187500.02, 187500.00
883, -187500.02, -186570.39, -186517.08, -187500.02, 11002.33, 187500.00, -187500.02, 187500.00
884, -187500.02, -186574.44, -186529.14, -187500.02, 10995.72, 187500.00, -187500.02, 187500.00
885, -187500.02, -186629.27, -186549.63, -187500.02, 10980.54, 187500.00, -187500.02, 187500.00
886, -187500.02, -186589.47, -186561.52, -187500.02, 10966.03, 187500.00, -187500.02, 187500.00
887, -187500.02, -186590.50, -186570.58, -187500.02, 10963.55, 187500.00, -187500.02, 187500.00
888, -187500.02, -186606.69, -186585.81, -187500.02, 10958.52, 187500.00, -187500.02, 187500.00
889, -187500.02, -186639.14, -186598.92, -187500.02, 10946.03, 187500.00, -187500.02, 187500.00
890, -187500.02, -186591.58, -186610.59, -187500.02, 10929.89, 187500.00, -187500.02, 187500.00
891, -187500.02, -186577.25, -186619.88, -187500.02, 10924.59, 187500.00, -187500.02, 187500.00
892, -187500.02, -186555.16, -186628.39, -187500.02, 10919.23, 187500.00, -187500.02, 187500.00
893, -187500.02, -186566.25, -186640.19, -187500.02, 10905.59, 187500.00, -187500.02, 187500.00
894, -187500.02, -186552.91, -186658.72, -187500.02, 10888.76, 187500.00, -187500.02, 187500.00
895, -187500.02, -186511.33, -186674.36, -187500.02, 10882.80, 187500.00, -187500.02, 187500.00
896, -187500.02, -186550.52, -186680.91, -187500.02, 10882.44, 187500.00, -187500.02, 187500.00
897, -187500.02, -186624.08, -186692.52, -187500.02, 10874.03, 187500.00, -187500.02, 187500.00
898, -187500.02, -186580.58, -186702.58, -187500.02, 10857.38, 187500.00, -187500.02, 187500.00
899, -187500.02, -186507.48, -186716.39, -187500.02, 10849.49, 187500.00, -187500.02, 187500.00
900, -187500.02, -186527.36, -186728.13, -187500.02, 10846.25, 187500.00, -187500.02, 187500.00
901, -187500.02, -186590.95, -186794.08, -187500.02, 10830.72, 187500.00, -187500.02, 187500.00
902, -187500.02, -186558.22, -186834.69, -187500.02, 10791.00, 187500.00, -187500.02, 187500.00
903, -187500.02, -186498.13, -186783.58, -187500.02, 10752.13, 187500.00, -187500.02, 187500.00
904, -187500.02, -186548.30, -186718.69, -187500.02, 10721.89, 187500.00, -187500.02, 187500.00
905, -187500.02, -186548.69, -186647.98, -187500.02, 10683.53, 187500.00, -187500.02, 187500.00
906, -187500.02, -186555.28, -186577.30, -187500.02, 10637.73, 187500.00, -187500.02, 187500.00
907, -187500.02, -186517.95, -186441.28, -187500.02, 10602.28, 187500.00, -187500.02, 187500.00
908, -187500.02, -186523.25, -186379.17, -187500.02, 10594.53, 187500.00, -187500.02, 187500.00
909, -187500.02, -186500.52, -186394.13, -187500.02, 10588.94, 187500.00, -187500.02, 187500.00
910, -187500.02, -186560.53, -186407.28, -187500.02, 10576.91, 187500.00, -187500.02, 187500.00
911, -187500.02, -186492.75, -186421.88, -187500.02, 10563.28, 187500.00, -187500.02, 187500.00
912, -187500.02, -186480.94, -186429.13, -187500.02, 10559.83, 187500.00, -187500.02, 187500.00
913, -187500.02, -186444.75, -186435.27, -187500.02, 10556.57, 187500.00, -187500.02, 187500.00
914, -187500.02, -186454.83, -186448.28, -187500.02, 10545.66, 187500.00, -187500.02, 187500.00
915, -187500.02, -186511.48, -186461.17, -187500.02, 10531.38, 187500.00, -187500.02, 187500.00
916, -187500.02, -186458.22, -186472.78, -187500.02, 10527.34, 187500.00, -187500.02, 187500.00
917, -187500.02, -186412.11, -186485.09, -187500.02, 10524.05, 187500.00, -187500.02, 187500.00
918, -187500.02, -186456.34, -186496.56, -187500.02, 10515.47, 187500.00, -187500.02, 187500.00
919, -187500.02, -186506.39, -186513.55, -187500.02, 10502.55, 187500.00, -187500.02, 187500.00
920, -187500.02, -186414.89, -186524.20, -187500.02, 10499.64, 187500.00, -187500.02, 187500.00
921, -187500.02, -186381.42, -186529.81, -187500.02, 10499.15, 187500.00, -187500.02, 187500.00
922, -187500.02, -186396.31, -186539.14, -187500.02, 10491.51, 187500.00, -187500.02, 187500.00
923, -187500.02, -186410.86, -186551.63, -187500.02, 10478.16, 187500.00, -187500.02, 187500.00
924, -187500.02, -186422.17, -186561.33, -187500.02, 10471.81, 187500.00, -187500.02, 187500.00
925, -187500.02, -186434.63, -186574.25, -187500.02, 10472.08, 187500.00, -187500.02, 187500.00
926, -187500.02, -186448.45, -186588.13, -187500.02, 10467.84, 187500.00, -187500.02, 187500.00
927, -187500.02, -186416.50, -186631.22, -187500.02, 10455.39, 187500.00, -187500.02, 187500.00
928, -187500.02, -186327.53, -186719.41, -187500.02, 10431.98, 187500.00, -187500.02, 187500.00
929, -187500.02, -186292.19, -186679.66, -187500.02, 10406.95, 187500.00, -187500.02, 187500.00
930, -187500.02, -186398.09, -186611.80, -187500.02, 10374.67, 187500.00, -187500.02, 187500.00
931, -187500.02, -186460.53, -186547.47, -187500.02, 10333.01, 187500.00, -187500.02, 187500.00
932, -187500.02, -186351.27, -186484.38, -187500.02, 10292.40, 187500.00, -187500.02, 187500.00
933, -187500.02, -186308.06, -186391.66, -187500.02, 10264.12, 187500.00, -187500.02, 187500.00
934, -187500.02, -186394.47, -186253.66, -187500.02, 10247.02, 187500.00, -187500.02, 187500.00
935, -187500.02, -186404.84, -186240.34, -187500.02, 10236.94, 187500.00, -187500.02, 187500.00
936, -187500.02, -186339.58, -186254.42, -187500.02, 10228.31, 187500.00, -187500.02, 187500.00
937, -187500.02, -186366.14, -186265.59, -187500.02, 10228.40, 187500.00, -187500.02, 187500.00
938, -187500.02, -186362.73, -186276.33, -187500.02, 10226.41, 187500.00, -187500.02, 187500.00
939, -187500.02, -186357.27, -186288.80, -187500.02, 10217.43, 187500.00, -187500.02, 187500.00
940, -187500.02, -186317.14, -186305.88, -187500.02, 10205.45, 187500.00, -187500.02, 187500.00
941, -187500.02, -186287.52, -186317.42, -187500.02, 10203.88, 187500.00, -187500.02, 187500.00
942, -187500.02, -186314.30, -186329.14, -187500.02, 10203.33, 187500.00, -187500.02, 187500.00
943, -187500.02, -186370.09, -186342.16, -187500.02, 10194.92, 187500.00, -187500.02, 187500.00
944, -187500.02, -186364.09, -186355.86, -187500.02, 10179.88, 187500.00, -187500.02, 187500.00
945, -187500.02, -186289.95, -186357.69, -187500.02, 10178.89, 187500.00, -187500.02, 187500.00
946, -187500.02, -186281.69, -186365.31, -187500.02, 10179.88, 187500.00, -187500.02, 187500.00
947, -187500.02, -186317.92, -186379.20, -187500.02, 10172.90, 187500.00, -187500.02, 187500.00
948, -187500.02, -186349.80, -186393.52, -187500.02, 10160.54, 187500.00, -187500.02, 187500.00
949, -187500.02, -186290.36, -186410.09, -187500.02, 10154.49, 187500.00, -187500.02, 187500.00
950, -187500.02, -186235.44, -186420.22, -187500.02, 10156.65, 187500.00, -187500.02, 187500.00
951, -187500.02, -186296.59, -186431.36, -187500.02, 10154.40, 187500.00, -187500.02, 187500.00
952, -187500.02, -186316.05, -186444.86, -187500.02, 10145.66, 187500.00, -187500.02, 187500.00
953, -187500.02, -186287.02, -186454.53, -187500.02, 10141.86, 187500.00, -187500.02, 187500.00
954, -187500.02, -186264.88, -186464.66, -187500.02, 10144.36, 187500.00, -187500.02, 187500.00
955, -187500.02, -186248.30, -186516.94, -187500.02, 10138.77, 187500.00, -187500.02, 187500.00
956, -187500.02, -186254.95, -186575.39, -187500.02, 10107.97, 187500.00, -187500.02, 187500.00
957, -187500.02, -186237.44, -186526.13, -187500.02, 10069.48, 187500.00, -187500.02, 187500.00
958, -187500.02, -186245.14, -186465.42, -187500.02, 10043.09, 187500.00, -187500.02, 187500.00
959, -187500.02, -186313.27, -186403.86, -187500.02, 10014.03, 187500.00, -187500.02, 187500.00
960, -187500.02, -186298.13, -186338.47, -187500.02, 9976.01, 187500.00, -187500.02, 187500.00
961, -187500.02, -186223.91, -186233.36, -187500.02, 9942.68, 187500.00, -187500.02, 187500.00
962, -187500.02, -186203.72, -186107.03, -187500.02, 9934.70, 187500.00, -187500.02, 187500.00
963, -187500.02, -186236.53, -186104.47, -187500.02, 9936.49, 187500.00, -187500.02, 187500.00
964, -187500.02, -186258.91, -186122.20, -187500.02, 9931.46, 187500.00, -187500.02, 187500.00
965, -187500.02, -186195.17, -186133.00, -187500.02, 9918.97, 187500.00, -187500.02, 187500.00
966, -187500.02, -186155.77, -186141.05, -187500.02, 9917.76, 187500.00, -187500.02, 187500.00
967, -187500.02, -186151.00, -186147.84, -187500.02, 9919.93, 187500.00, -187500.02, 187500.00
968, -187500.02, -186172.75, -186162.28, -187500.02, 9914.61, 187500.00, -187500.02, 187500.00
969, -187500.02, -186202.67, -186176.22, -187500.02, 9906.20, 187500.00, -187500.02, 187500.00
970, -187500.02, -186149.81, -186187.23, -187500.02, 9904.86, 187500.00, -187500.02, 187500.00
971, -187500.02, -186174.28, -186199.28, -187500.02, 9906.99, 187500.00, -187500.02, 187500.00
972, -187500.02, -186178.52, -186205.92, -187500.02, 9902.78, 187500.00, -187500.02, 187500.00
973, -187500.02, -186144.41, -186220.69, -187500.02, 9893.84, 187500.00, -187500.02, 187500.00
974, -187500.02, -186084.77, -186234.58, -187500.02, 9892.10, 187500.00, -187500.02, 187500.00
975, -187500.02, -186105.13, -186247.48, -187500.02, 9896.08, 187500.00, -187500.02, 187500.00
976, -187500.02, -186143.47, -186255.89, -187500.02, 9893.80, 187500.00, -187500.02, 187500.00
977, -187500.02, -186194.47, -186264.59, -187500.02, 9884.50, 187500.00, -187500.02, 187500.00
978, -187500.02, -186156.98, -186276.58, -187500.02, 9878.73, 187500.00, -187500.02, 187500.00
979, -187500.02, -186121.45, -186287.02, -187500.02, 9885.19, 187500.00, -187500.02, 187500.00
980, -187500.02, -186095.28, -186298.28, -187500.02, 9886.53, 187500.00, -187500.02, 187500.00
981, -187500.02, -186141.44, -186313.63, -187500.02, 9877.64, 187500.00, -187500.02, 187500.00
982, -187500.02, -186101.78, -186347.58, -187500.02, 9870.49, 187500.00, -187500.02, 187500.00
983, -187500.02, -186082.06, -186431.52, -187500.02, 9864.58, 187500.00, -187500.02, 187500.00
984, -187500.02, -186092.92, -186412.00, -187500.02, 9838.12, 187500.00, -187500.02, 187500.00
985, -187500.02, -186154.08, -186345.17, -187500.02, 9802.89, 187500.00, -187500.02, 187500.00
986, -187500.02, -186141.88, -186282.47, -187500.02, 9766.06, 187500.00, -187500.02, 187500.00
987, -187500.02, -186127.86, -186216.72, -187500.02, 9737.78, 187500.00, -187500.02, 187500.00
988, -187500.02, -186059.95, -186147.16, -187500.02, 9708.77, 187500.00, -187500.02, 187500.00
989, -187500.02, -186087.41, -186015.55, -187500.02, 9681.52, 187500.00, -187500.02, 187500.00
990, -187500.02, -186108.33, -185959.13, -187500.02, 9670.42, 187500.00, -187500.02, 187500.00
991, -187500.02, -186051.80, -185973.02, -187500.02, 9673.28, 187500.00, -187500.02, 187500.00
992, -187500.02, -186018.30, -185979.19, -187500.02, 9680.00, 187500.00, -187500.02, 187500.00
993, -187500.02, -186087.47, -185989.34, -187500.02, 9681.01, 187500.00, -187500.02, 187500.00
994, -187500.02, -186050.03, -186000.58, -187500.02, 9674.46, 187500.00, -187500.02, 187500.00
995, -187500.02, -186006.88, -186009.47, -187500.02, 9676.65, 187500.00, -187500.02, 187500.00
996, -187500.02, -186056.11, -186016.06, -187500.02, 9682.40, 187500.00, -187500.02, 187500.00
997, -187500.02, -186075.63, -186027.73, -187500.02, 9680.34, 187500.00, -187500.02, 187500.00
998, -187500.02, -186093.05, -186042.89, -187500.02, 9671.24, 187500.00, -187500.02, 187500.00
999, -187500.02, -186052.78, -186052.98, -187500.02, 9668.27, 187500.00, -187500.02, 187500.00
1000, -187500.02, -186029.25, -186066.91, -187500.02, 9674.42, 187500.00, -187500.02, 187500.00
1001, -187500.02, -186061.03, -186076.48, -187500.02, 9675.24, 187500.00, -187500.02, 187500.00
1002, -187500.02, -186031.97, -186087.67, -187500.02, 9669.16, 187500.00, -187500.02, 187500.00
1003, -187500.02, -185985.64, -186101.44, -187500.02, 9666.93, 187500.00, -187500.02, 187500.00
1004, -187500.02, -185987.25, -186110.47, -187500.02, 9672.02, 187500.00, -187500.02, 187500.00
1005, -187500.02, -186025.03, -186119.45, -187500.02, 9672.00, 187500.00, -187500.02, 187500.00
1006, -187500.02, -186013.88, -186129.72, -187500.02, 9665.65, 187500.00, -187500.02, 187500.00
1007, -187500.02, -185988.17, -186144.53, -187500.02, 9659.71, 187500.00, -187500.02, 187500.00
1008, -187500.02, -186021.83, -186157.53, -187500.02, 9665.99, 187500.00, -187500.02, 187500.00
1009, -187500.02, -185996.56, -186168.59, -187500.02, 9671.29, 187500.00, -187500.02, 187500.00
1010, -187500.02, -185994.58, -186182.41, -187500.02, 9667.93, 187500.00, -187500.02, 187500.00
1011, -187500.02, -185988.39, -186262.56, -187500.02, 9656.38, 187500.00, -187500.02, 187500.00
1012, -187500.02, -185967.64, -186288.78, -187500.02, 9637.38, 187500.00, -187500.02, 187500.00
1013, -187500.02, -185993.52, -186224.69, -187500.02, 9611.00, 187500.00, -187500.02, 187500.00
1014, -187500.02, -185984.52, -186161.06, -187500.02, 9578.44, 187500.00, -187500.02, 187500.00
1015, -187500.02, -185949.39, -186097.38, -187500.02, 9543.10, 187500.00, -187500.02, 187500.00
1016, -187500.02, -185932.17, -186026.72, -187500.02, 9518.02, 187500.00, -187500.02, 187500.00
1017, -187500.02, -185935.28, -185890.38, -187500.02, 9504.23, 187500.00, -187500.02, 187500.00
1018, -187500.02, -185984.41, -185809.69, -187500.02, 9500.03, 187500.00, -187500.02, 187500.00
1019, -187500.02, -185917.25, -185822.52, -187500.02, 9496.21, 187500.00, -187500.02, 187500.00
1020, -187500.02, -185881.77, -185837.25, -187500.02, 9498.96, 187500.00, -187500.02, 187500.00
1021, -187500.02, -185913.69, -185850.48, -187500.02, 9503.72, 187500.00, -187500.02, 187500.00
1022, -187500.02, -185927.14, -185861.41, -187500.02, 9504.92, 187500.00, -187500.02, 187500.00
1023, -187500.02, -185943.08, -185872.31, -187500.02, 9499.63, 187500.00, -187500.02, 187500.00
1024, -187500.02, -185925.17, -185884.25, -187500.02, 9499.40, 187500.00, -187500.02, 187500.00
1025, -187500.02, -185876.23, -185891.50, -187500.02, 9508.21, 187500.00, -187500.02, 187500.00
1026, -187500.02, -185868.20, -185899.45, -187500.02, 9511.18, 187500.00, -187500.02, 187500.00
1027, -187500.02, -185912.64, -185912.75, -187500.02, 9507.29, 187500.00, -187500.02, 187500.00
1028, -187500.02, -185886.28, -185928.33, -187500.02, 9503.40, 187500.00, -187500.02, 187500.00
1029, -187500.02, -185810.22, -185937.73, -187500.02, 9508.79, 187500.00, -187500.02, 187500.00
1030, -187500.02, -185857.34, -185946.19, -187500.02, 9512.66, 187500.00, -187500.02, 187500.00
1031, -187500.02, -185892.08, -185960.86, -187500.02, 9510.02, 187500.00, -187500.02, 187500.00
1032, -187500.02, -185859.58, -185969.34, -187500.02, 9506.40, 187500.00, -187500.02, 187500.00
1033, -187500.02, -185798.89, -185974.94, -187500.02, 9515.07, 187500.00, -187500.02, 187500.00
1034, -187500.02, -185825.41, -185986.73, -187500.02, 9522.83, 187500.00, -187500.02, 187500.00
1035, -187500.02, -185850.14, -186000.50, -187500.02, 9521.24, 187500.00, -187500.02, 187500.00
1036, -187500.02, -185840.11, -186012.39, -187500.02, 9514.51, 187500.00, -187500.02, 187500.00
1037, -187500.02, -185838.44, -186026.61, -187500.02, 9519.81, 187500.00, -187500.02, 187500.00
1038, -187500.02, -185840.22, -186054.48, -187500.02, 9527.70, 187500.00, -187500.02, 187500.00
1039, -187500.02, -185837.94, -186141.20, -187500.02, 9515.58, 187500.00, -187500.02, 187500.00
1040, -187500.02, -185821.09, -186119.55, -187500.02, 9484.40, 187500.00, -187500.02, 187500.00
1041, -187500.02, -185798.41, -186047.69, -187500.02, 9459.68, 187500.00, -187500.02, 187500.00
1042, -187500.02, -185805.02, -185982.59, -187500.02, 9438.49, 187500.00, -187500.02, 187500.00
1043, -187500.02, -185782.83, -185916.16, -187500.02, 9409.70, 187500.00, -187500.02, 187500.00
1044, -187500.02, -185770.80, -185815.77, -187500.02, 9376.76, 187500.00, -187500.02, 187500.00
1045, -187500.02, -185739.77, -185695.81, -187500.02, 9367.03, 187500.00, -187500.02, 187500.00
1046, -187500.02, -185733.02, -185688.56, -187500.02, 9374.68, 187500.00, -187500.02, 187500.00
1047, -187500.02, -185785.97, -185702.53, -187500.02, 9376.29, 187500.00, -187500.02, 187500.00
1048, -187500.02, -185805.13, -185712.50, -187500.02, 9374.25, 187500.00, -187500.02, 187500.00
1049, -187500.02, -185740.70, -185719.77, -187500.02, 9378.17, 187500.00, -187500.02, 187500.00
1050, -187500.02, -185772.77, -185730.63, -187500.02, 9389.77, 187500.00, -187500.02, 187500.00
1051, -187500.02, -185751.28, -185740.94, -187500.02, 9393.63, 187500.00, -187500.02, 187500.00
1052, -187500.02, -185737.53, -185758.14, -187500.02, 9390.84, 187500.00, -187500.02, 187500.00
1053, -187500.02, -185688.66, -185773.61, -187500.02, 9391.73, 187500.00, -187500.02, 187500.00
1054, -187500.02, -185709.06, -185785.48, -187500.02, 9402.19, 187500.00, -187500.02, 187500.00
1055, -187500.02, -185746.39, -185794.22, -187500.02, 9405.26, 187500.00, -187500.02, 187500.00
1056, -187500.02, -185795.00, -185801.59, -187500.02, 9403.47, 187500.00, -187500.02, 187500.00
1057, -187500.02, -185732.81, -185813.02, -187500.02, 9402.69, 187500.00, -187500.02, 187500.00
1058, -187500.02, -185688.81, -185828.53, -187500.02, 9411.67, 187500.00, -187500.02, 187500.00
1059, -187500.02, -185692.55, -185840.69, -187500.02, 9418.85, 187500.00, -187500.02, 187500.00
1060, -187500.02, -185661.58, -185846.50, -187500.02, 9419.23, 187500.00, -187500.02, 187500.00
1061, -187500.02, -185698.38, -185859.08, -187500.02, 9416.81, 187500.00, -187500.02, 187500.00
1062, -187500.02, -185644.39, -185873.84, -187500.02, 9424.57, 187500.00, -187500.02, 187500.00
1063, -187500.02, -185689.53, -185881.97, -187500.02, 9433.17, 187500.00, -187500.02, 187500.00
1064, -187500.02, -185730.97, -185893.13, -187500.02, 9435.70, 187500.00, -187500.02, 187500.00
1065, -187500.02, -185731.64, -185918.66, -187500.02, 9433.20, 187500.00, -187500.02, 187500.00
1066, -187500.02, -185689.97, -186002.16, -187500.02, 9425.64, 187500.00, -187500.02, 187500.00
1067, -187500.02, -185623.03, -185980.72, -187500.02, 9408.32, 187500.00, -187500.02, 187500.00
1068, -187500.02, -185665.78, -185915.92, -187500.02, 9383.06, 187500.00, -187500.02, 187500.00
1069, -187500.02, -185715.44, -185853.11, -187500.02, 9348.37, 187500.00, -187500.02, 187500.00
1070, -187500.02, -185658.75, -185788.97, -187500.02, 9322.53, 187500.00, -187500.02, 187500.00
1071, -187500.02, -185664.13, -185700.14, -187500.02, 9307.51, 187500.00, -187500.02, 187500.00
1072, -187500.02, -185680.94, -185565.78, -187500.02, 9301.23, 187500.00, -187500.02, 187500.00
1073, -187500.02, -185716.25, -185547.30, -187500.02, 9300.81, 187500.00, -187500.02, 187500.00
1074, -187500.02, -185714.16, -185557.97, -187500.02, 9303.67, 187500.00, -187500.02, 187500.00
1075, -187500.02, -185641.53, -185568.69, -187500.02, 9314.73, 187500.00, -187500.02, 187500.00
1076, -187500.02, -185636.66, -185577.23, -187500.02, 9320.01, 187500.00, -187500.02, 187500.00
1077, -187500.02, -185658.30, -185590.13, -187500.02, 9316.74, 187500.00, -187500.02, 187500.00
1078, -187500.02, -185628.14, -185603.88, -187500.02, 9318.13, 187500.00, -187500.02, 187500.00
1079, -187500.02, -185570.03, -185612.80, -187500.02, 9331.54, 187500.00, -187500.02, 187500.00
1080, -187500.02, -185573.39, -185619.16, -187500.02, 9341.38, 187500.00, -187500.02, 187500.00
1081, -187500.02, -185641.11, -185628.80, -187500.02, 9344.55, 187500.00, -187500.02, 187500.00
1082, -187500.02, -185641.56, -185640.44, -187500.02, 9345.44, 187500.00, -187500.02, 187500.00
1083, -187500.02, -185615.52, -185649.05, -187500.02, 9354.27, 187500.00, -187500.02, 187500.00
1084, -187500.02, -185624.84, -185663.16, -187500.02, 9362.32, 187500.00, -187500.02, 187500.00
1085, -187500.02, -185597.72, -185677.88, -187500.02, 9364.44, 187500.00, -187500.02, 187500.00
1086, -187500.02, -185587.78, -185690.33, -187500.02, 9366.14, 187500.00, -187500.02, 187500.00
1087, -187500.02, -185581.44, -185700.25, -187500.02, 9376.02, 187500.00, -187500.02, 187500.00
1088, -187500.02, -185577.13, -185705.66, -187500.02, 9388.49, 187500.00, -187500.02, 187500.00
1089, -187500.02, -185570.03, -185716.59, -187500.02, 9395.60, 187500.00, -187500.02, 187500.00
1090, -187500.02, -185590.23, -185725.27, -187500.02, 9394.53, 187500.00, -187500.02, 187500.00
1091, -187500.02, -185547.80, -185739.02, -187500.02, 9402.44, 187500.00, -187500.02, 187500.00
1092, -187500.02, -185531.25, -185753.14, -187500.02, 9415.16, 187500.00, -187500.02, 187500.00
1093, -187500.02, -185512.41, -185776.03, -187500.02, 9417.62, 187500.00, -187500.02, 187500.00
1094, -187500.02, -185545.27, -185858.25, -187500.02, 9405.03, 187500.00, -187500.02, 187500.00
1095, -187500.02, -185504.88, -185857.28, -187500.02, 9382.32, 187500.00, -187500.02, 187500.00
1096, -187500.02, -185488.27, -185787.41, -187500.02, 9366.23, 187500.00, -187500.02, 187500.00
1097, -187500.02, -185571.75, -185719.05, -187500.02, 9349.06, 187500.00, -187500.02, 187500.00
1098, -187500.02, -185570.53, -185651.59, -187500.02, 9321.95, 187500.00, -187500.02, 187500.00
1099, -187500.02, -185467.64, -185578.19, -187500.02, 9296.20, 187500.00, -187500.02, 187500.00
1100, -187500.02, -185475.75, -185436.70, -187500.02, 9290.37, 187500.00, -187500.02, 187500.00
1101, -187500.02, -185487.00, -185387.42, -187500.02, 9295.51, 187500.00, -187500.02, 187500.00
1102, -187500.02, -185526.09, -185400.16, -187500.02, 9299.13, 187500.00, -187500.02, 187500.00
1103, -187500.02, -185475.75, -185415.56, -187500.02, 9301.92, 187500.00, -187500.02, 187500.00
1104, -187500.02, -185423.52, -185428.86, -187500.02, 9315.36, 187500.00, -187500.02, 187500.00
1105, -187500.02, -185516.81, -185437.13, -187500.02, 9327.14, 187500.00, -187500.02, 187500.00
1106, -187500.02, -185531.28, -185445.72, -187500.02, 9330.71, 187500.00, -187500.02, 187500.00
1107, -187500.02, -185517.95, -185454.19, -187500.02, 9331.05, 187500.00, -187500.02, 187500.00
1108, -187500.02, -185483.33, -185465.36, -187500.02, 9341.24, 187500.00, -187500.02, 187500.00
1109, -187500.02, -185489.56, -185476.58, -187500.02, 9350.96, 187500.00, -187500.02, 187500.00
1110, -187500.02, -185511.88, -185487.05, -187500.02, 9355.88, 187500.00, -187500.02, 187500.00
1111, -187500.02, -185478.72, -185498.13, -187500.02, 9355.90, 187500.00, -187500.02, 187500.00
1112, -187500.02, -185450.34, -185506.08, -187500.02, 9365.81, 187500.00, -187500.02, 187500.00
1113, -187500.02, -185432.34, -185510.78, -187500.02, 9379.60, 187500.00, -187500.02, 187500.00
1114, -187500.02, -185417.61, -185524.19, -187500.02, 9387.40, 187500.00, -187500.02, 187500.00
1115, -187500.02, -185454.81, -185536.23, -187500.02, 9389.48, 187500.00, -187500.02, 187500.00
1116, -187500.02, -185460.75, -185546.73, -187500.02, 9397.30, 187500.00, -187500.02, 187500.00
1117, -187500.02, -185417.25, -185556.69, -187500.02, 9408.99, 187500.00, -187500.02, 187500.00
1118, -187500.02, -185395.52, -185567.08, -187500.02, 9414.31, 187500.00, -187500.02, 187500.00
1119, -187500.02, -185410.47, -185579.47, -187500.02, 9416.52, 187500.00, -187500.02, 187500.00
1120, -187500.02, -185406.91, -185589.56, -187500.02, 9424.86, 187500.00, -187500.02, 187500.00
1121, -187500.02, -185415.30, -185600.66, -187500.02, 9439.59, 187500.00, -187500.02, 187500.00
1122, -187500.02, -185407.16, -185612.81, -187500.02, 9450.00, 187500.00, -187500.02, 187500.00
1123, -187500.02, -185380.73, -185660.78, -187500.02, 9450.61, 187500.00, -187500.02, 187500.00
1124, -187500.02, -185345.06, -185733.95, -187500.02, 9435.65, 187500.00, -187500.02, 187500.00
1125, -187500.02, -185360.27, -185688.45, -187500.02, 9419.11, 187500.00, -187500.02, 187500.00
1126, -187500.02, -185399.80, -185619.72, -187500.02, 9400.45, 187500.00, -187500.02, 187500.00
1127, -187500.02, -185407.20, -185554.56, -187500.02, 9376.76, 187500.00, -187500.02, 187500.00
1128, -187500.02, -185350.09, -185489.16, -187500.02, 9352.17, 187500.00, -187500.02, 187500.00
1129, -187500.02, -185306.03, -185385.14, -187500.02, 9339.85, 187500.00, -187500.02, 187500.00
1130, -187500.02, -185303.38, -185251.30, -187500.02, 9341.31, 187500.00, -187500.02, 187500.00
1131, -187500.02, -185308.63, -185239.88, -187500.02, 9346.69, 187500.00, -187500.02, 187500.00
1132, -187500.02, -185324.31, -185256.11, -187500.02, 9351.72, 187500.00, -187500.02, 187500.00
1133, -187500.02, -185304.03, -185273.41, -187500.02, 9362.45, 187500.00, -187500.02, 187500.00
1134, -187500.02, -185336.97, -185278.78, -187500.02, 9374.61, 187500.00, -187500.02, 187500.00
1135, -187500.02, -185303.47, -185285.53, -187500.02, 9382.46, 187500.00, -187500.02, 187500.00
1136, -187500.02, -185296.11, -185297.92, -187500.02, 9385.81, 187500.00, -187500.02, 187500.00
1137, -187500.02, -185257.72, -185305.95, -187500.02, 9397.75, 187500.00, -187500.02, 187500.00
1138, -187500.02, -185295.06, -185311.17, -187500.02, 9412.19, 187500.00, -187500.02, 187500.00
1139, -187500.02, -185336.13, -185316.83, -187500.02, 9419.67, 187500.00, -187500.02, 187500.00
1140, -187500.02, -185344.38, -185334.73, -187500.02, 9421.64, 187500.00, -187500.02, 187500.00
1141, -187500.02, -185264.14, -185348.66, -187500.02, 9429.24, 187500.00, -187500.02, 187500.00
1142, -187500.02, -185285.27, -185352.91, -187500.02, 9445.24, 187500.00, -187500.02, 187500.00
1143, -187500.02, -185311.06, -185364.48, -187500.02, 9453.96, 187500.00, -187500.02, 187500.00
1144, -187500.02, -185302.64, -185376.80, -187500.02, 9456.60, 187500.00, -187500.02, 187500.00
1145, -187500.02, -185258.77, -185383.69, -187500.02, 9465.83, 187500.00, -187500.02, 187500.00
1146, -187500.02, -185277.05, -185395.47, -187500.02, 9482.08, 187500.00, -187500.02, 187500.00
1147, -187500.02, -185284.47, -185405.08, -187500.02, 9493.77, 187500.00, -187500.02, 187500.00
1148, -187500.02, -185264.38, -185416.94, -187500.02, 9500.00, 187500.00, -187500.02, 187500.00
1149, -187500.02, -185289.67, -185430.00, -187500.02, 9505.28, 187500.00, -187500.02, 187500.00
1150, -187500.02, -185277.36, -185437.98, -187500.02, 9519.56, 187500.00, -187500.02, 187500.00
1151, -187500.02, -185244.75, -185445.20, -187500.02, 9533.62, 187500.00, -187500.02, 187500.00
1152, -187500.02, -185251.83, -185462.41, -187500.02, 9542.47, 187500.00, -187500.02, 187500.00
1153, -187500.02, -185258.53, -185538.63, -187500.02, 9542.09, 187500.00, -187500.02, 187500.00
1154, -187500.02, -185246.16, -185547.02, -187500.02, 9529.46, 187500.00, -187500.02, 187500.00
1155, -187500.02, -185232.16, -185490.34, -187500.02, 9514.42, 187500.00, -187500.02, 187500.00
1156, -187500.02, -185250.78, -185429.03, -187500.02, 9492.65, 187500.00, -187500.02, 187500.00
1157, -187500.02, -185232.72, -185363.48, -187500.02, 9466.77, 187500.00, -187500.02, 187500.00
1158, -187500.02, -185213.95, -185277.61, -187500.02, 9452.75, 187500.00, -187500.02, 187500.00
1159, -187500.02, -185213.23, -185137.50, -187500.02, 9452.42, 187500.00, -187500.02, 187500.00
1160, -187500.02, -185217.44, -185107.50, -187500.02, 9461.31, 187500.00, -187500.02, 187500.00
1161, -187500.02, -185202.28, -185118.81, -187500.02, 9469.03, 187500.00, -187500.02, 187500.00
1162, -187500.02, -185159.61, -185129.38, -187500.02, 9479.11, 187500.00, -187500.02, 187500.00
1163, -187500.02, -185156.77, -185138.06, -187500.02, 9492.32, 187500.00, -187500.02, 187500.00
1164, -187500.02, -185158.92, -185147.58, -187500.02, 9501.93, 187500.00, -187500.02, 187500.00
1165, -187500.02, -185166.97, -185163.44, -187500.02, 9506.04, 187500.00, -187500.02, 187500.00
1166, -187500.02, -185110.77, -185174.70, -187500.02, 9517.57, 187500.00, -187500.02, 187500.00
1167, -187500.02, -185160.70, -185183.39, -187500.02, 9532.86, 187500.00, -187500.02, 187500.00
1168, -187500.02, -185179.69, -185191.23, -187500.02, 9541.98, 187500.00, -187500.02, 187500.00
1169, -187500.02, -185169.88, -185198.50, -187500.02, 9548.98, 187500.00, -187500.02, 187500.00
1170, -187500.02, -185151.61, -185210.44, -187500.02, 9559.91, 187500.00, -187500.02, 187500.00
1171, -187500.02, -185113.14, -185218.86, -187500.02, 9578.24, 187500.00, -187500.02, 187500.00
1172, -187500.02, -185125.33, -185231.78, -187500.02, 9593.10, 187500.00, -187500.02, 187500.00
1173, -187500.02, -185194.08, -185241.39, -187500.02, 9600.23, 187500.00, -187500.02, 187500.00
1174, -187500.02, -185108.00, -185248.44, -187500.02, 9610.40, 187500.00, -187500.02, 187500.00
1175, -187500.02, -185092.86, -185255.81, -187500.02, 9628.66, 187500.00, -187500.02, 187500.00
1176, -187500.02, -185102.50, -185265.05, -187500.02, 9644.53, 187500.00, -187500.02, 187500.00
1177, -187500.02, -185103.94, -185273.30, -187500.02, 9655.60, 187500.00, -187500.02, 187500.00
1178, -187500.02, -185058.05, -185279.34, -187500.02, 9662.79, 187500.00, -187500.02, 187500.00
1179, -187500.02, -185011.55, -185288.00, -187500.02, 9677.68, 187500.00, -187500.02, 187500.00
1180, -187500.02, -185069.52, -185303.72, -187500.02, 9694.53, 187500.00, -187500.02, 187500.00
1181, -187500.02, -185147.61, -185335.67, -187500.02, 9701.10, 187500.00, -187500.02, 187500.00
1182, -187500.02, -185114.03, -185425.30, -187500.02, 9691.11, 187500.00, -187500.02, 187500.00
1183, -187500.02, -185085.02, -185398.03, -187500.02, 9677.03, 187500.00, -187500.02, 187500.00
1184, -187500.02, -185112.67, -185327.56, -187500.02, 9664.09, 187500.00, -187500.02, 187500.00
1185, -187500.02, -185077.27, -185258.61, -187500.02, 9646.92, 187500.00, -187500.02, 187500.00
1186, -187500.02, -185087.17, -185190.14, -187500.02, 9626.18, 187500.00, -187500.02, 187500.00
1187, -187500.02, -185062.84, -185074.31, -187500.02, 9612.95, 187500.00, -187500.02, 187500.00
1188, -187500.02, -185079.88, -184959.72, -187500.02, 9620.32, 187500.00, -187500.02, 187500.00
1189, -187500.02, -185095.95, -184966.42, -187500.02, 9631.34, 187500.00, -187500.02, 187500.00
1190, -187500.02, -185101.58, -184980.28, -187500.02, 9640.11, 187500.00, -187500.02, 187500.00
1191, -187500.02, -184994.59, -184989.28, -187500.02, 9655.26, 187500.00, -187500.02, 187500.00
1192, -187500.02, -184990.31, -185003.84, -187500.02, 9676.47, 187500.00, -187500.02, 187500.00
1193, -187500.02, -185065.52, -185015.11, -187500.02, 9693.12, 187500.00, -187500.02, 187500.00
1194, -187500.02, -185074.89, -185023.53, -187500.02, 9699.41, 187500.00, -187500.02, 187500.00
1195, -187500.02, -184996.75, -185034.00, -187500.02, 9709.15, 187500.00, -187500.02, 187500.00
1196, -187500.02, -184987.36, -185045.42, -187500.02, 9727.30, 187500.00, -187500.02, 187500.00
1197, -187500.02, -184957.13, -185051.66, -187500.02, 9742.10, 187500.00, -187500.02, 187500.00
1198, -187500.02, -184978.27, -185058.78, -187500.02, 9752.00, 187500.00, -187500.02, 187500.00
1199, -187500.02, -184935.72, -185074.05, -187500.02, 9761.68, 187500.00, -187500.02, 187500.00
1200, -187500.02, -184932.19, -185079.28, -187500.02, 9778.80, 187500.00, -187500.02, 187500.00
1201, -187500.02, -185017.08, -185087.28, -187500.02, 9796.86, 187500.00, -187500.02, 187500.00
1202, -187500.02, -185057.28, -185100.47, -187500.02, 9807.79, 187500.00, -187500.02, 187500.00
1203, -187500.02, -185031.44, -185111.38, -187500.02, 9815.63, 187500.00, -187500.02, 187500.00
1204, -187500.02, -184965.13, -185117.50, -187500.02, 9834.83, 187500.00, -187500.02, 187500.00
1205, -187500.02, -184936.69, -185131.11, -187500.02, 9852.27, 187500.00, -187500.02, 187500.00
1206, -187500.02, -184957.91, -185142.00, -187500.02, 9863.22, 187500.00, -187500.02, 187500.00
1207, -187500.02, -184952.67, -185155.19, -187500.02, 9869.39, 187500.00, -187500.02, 187500.00
1208, -187500.02, -184884.95, -185163.50, -187500.02, 9884.14, 187500.00, -187500.02, 187500.00
1209, -187500.02, -184945.50, -185165.33, -187500.02, 9906.23, 187500.00, -187500.02, 187500.00
1210, -187500.02, -184969.53, -185181.47, -187500.02, 9920.13, 187500.00, -187500.02, 187500.00
1211, -187500.02, -184927.89, -185263.97, -187500.02, 9918.23, 187500.00, -187500.02, 187500.00
1212, -187500.02, -184926.86, -185275.64, -187500.02, 9905.73, 187500.00, -187500.02, 187500.00
1213, -187500.02, -184906.72, -185209.52, -187500.02, 9894.56, 187500.00, -187500.02, 187500.00
1214, -187500.02, -184938.27, -185144.55, -187500.02, 9878.26, 187500.00, -187500.02, 187500.00
1215, -187500.02, -184969.27, -185081.42, -187500.02, 9854.77, 187500.00, -187500.02, 187500.00
1216, -187500.02, -184917.25, -184989.38, -187500.02, 9838.50, 187500.00, -187500.02, 187500.00
1217, -187500.02, -184883.50, -184850.16, -187500.02, 9848.00, 187500.00, -187500.02, 187500.00
1218, -187500.02, -184892.48, -184833.25, -187500.02, 9863.74, 187500.00, -187500.02, 187500.00
1219, -187500.02, -184911.70, -184844.78, -187500.02, 9871.56, 187500.00, -187500.02, 187500.00
1220, -187500.02, -184885.44, -184859.84, -187500.02, 9882.78, 187500.00, -187500.02, 187500.00
1221, -187500.02, -184877.44, -184874.67, -187500.02, 9902.85, 187500.00, -187500.02, 187500.00
1222, -187500.02, -184878.52, -184882.98, -187500.02, 9918.81, 187500.00, -187500.02, 187500.00
1223, -187500.02, -184883.16, -184893.00, -187500.02, 9928.64, 187500.00, -187500.02, 187500.00
1224, -187500.02, -184891.86, -184902.91, -187500.02, 9939.98, 187500.00, -187500.02, 187500.00
1225, -187500.02, -184860.19, -184913.78, -187500.02, 9962.08, 187500.00, -187500.02, 187500.00
1226, -187500.02, -184837.78, -184924.06, -187500.02, 9979.23, 187500.00, -187500.02, 187500.00
1227, -187500.02, -184862.59, -184931.33, -187500.02, 9990.58, 187500.00, -187500.02, 187500.00
1228, -187500.02, -184891.14, -184942.66, -187500.02, 9999.12, 187500.00, -187500.02, 187500.00
1229, -187500.02, -184855.33, -184958.02, -187500.02, 10015.15, 187500.00, -187500.02, 187500.00
1230, -187500.02, -184877.83, -184969.84, -187500.02, 10033.76, 187500.00, -187500.02, 187500.00
1231, -187500.02, -184858.63, -184982.30, -187500.02, 10044.40, 187500.00, -187500.02, 187500.00
1232, -187500.02, -184853.09, -184991.02, -187500.02, 10051.62, 187500.00, -187500.02, 187500.00
1233, -187500.02, -184834.19, -184995.41, -187500.02, 10070.00, 187500.00, -187500.02, 187500.00
1234, -187500.02, -184789.06, -185004.53, -187500.02, 10091.05, 187500.00, -187500.02, 187500.00
1235, -187500.02, -184774.94, -185018.72, -187500.02, 10104.91, 187500.00, -187500.02, 187500.00
1236, -187500.02, -184822.59, -185027.27, -187500.02, 10113.14, 187500.00, -187500.02, 187500.00
1237, -187500.02, -184831.27, -185038.70, -187500.02, 10126.99, 187500.00, -187500.02, 187500.00
1238, -187500.02, -184844.20, -185048.77, -187500.02, 10148.45, 187500.00, -187500.02, 187500.00
1239, -187500.02, -184826.59, -185091.34, -187500.02, 10160.83, 187500.00, -187500.02, 187500.00
1240, -187500.02, -184853.02, -185162.05, -187500.02, 10152.63, 187500.00, -187500.02, 187500.00
1241, -187500.02, -184790.11, -185113.31, -187500.02, 10137.05, 187500.00, -187500.02, 187500.00
